# wave[microns] transmission[e/photon]
1.00000 0.000030488569
1.00580 0.000030433787
1.01160 0.000030379004
1.01740 0.000030324222
1.02320 0.000030269440
1.02900 0.000030214658
1.03480 0.000030159876
1.04060 0.000030105093
1.04640 0.000030050311
1.05220 0.000029995529
1.05800 0.000029940747
1.06380 0.000029885965
1.06960 0.000029831182
1.07540 0.000029776400
1.08120 0.000029721618
1.08700 0.000029666836
1.09280 0.000029612054
1.09860 0.000029557271
1.10440 0.000029502489
1.11020 0.000029447707
1.11600 0.000029392925
1.12180 0.000029338143
1.12760 0.000029283360
1.13340 0.000029228578
1.13920 0.000029173796
1.14500 0.000029119014
1.15080 0.000029064232
1.15660 0.000029009449
1.16240 0.000028954667
1.16820 0.000028899885
1.17400 0.000028845103
1.17980 0.000028790321
1.18560 0.000028735539
1.19140 0.000028680756
1.19720 0.000028625974
1.20300 0.000028571192
1.20880 0.000028516410
1.21460 0.000028461628
1.22040 0.000028406845
1.22620 0.000028352063
1.23200 0.000028297281
1.23780 0.000028242499
1.24360 0.000028187717
1.24940 0.000028132934
1.25520 0.000028078152
1.26100 0.000028023370
1.26680 0.000027968588
1.27260 0.000027913806
1.27840 0.000027859023
1.28420 0.000027804241
1.29000 0.000027749459
1.29580 0.000027694677
1.30160 0.000027639895
1.30740 0.000027585112
1.31320 0.000027530330
1.31900 0.000027475548
1.32480 0.000027420766
1.33060 0.000027365984
1.33640 0.000027311201
1.34220 0.000027256419
1.34800 0.000027201637
1.35380 0.000027146855
1.35960 0.000027092073
1.36540 0.000027037291
1.37120 0.000026982508
1.37700 0.000026927726
1.38280 0.000026872944
1.38860 0.000026818162
1.39440 0.000026763380
1.40020 0.000026708597
1.40600 0.000026653815
1.41180 0.000026599033
1.41760 0.000026544251
1.42340 0.000026489469
1.42920 0.000026434686
1.43500 0.000026379904
1.44080 0.000026325122
1.44660 0.000026270340
1.45240 0.000026215558
1.45820 0.000026160775
1.46400 0.000026105993
1.46980 0.000026051211
1.47560 0.000025996429
1.48140 0.000025941647
1.48720 0.000025886864
1.49300 0.000025832082
1.49880 0.000025777300
1.50460 0.000025722518
1.51040 0.000025667736
1.51620 0.000025612953
1.52200 0.000025558171
1.52780 0.000025503389
1.53360 0.000025448607
1.53940 0.000025393825
1.54520 0.000025339043
1.55100 0.000025284260
1.55680 0.000025229478
1.56260 0.000025174696
1.56840 0.000025119914
1.57420 0.000025065132
1.58000 0.000025010349
1.58580 0.000024955567
1.59160 0.000024900785
1.59740 0.000024846003
1.60320 0.000024791221
1.60900 0.000024736438
1.61480 0.000024681656
1.62060 0.000024626874
1.62640 0.000024572092
1.63220 0.000024517310
1.63800 0.000024462527
1.64380 0.000024407745
1.64960 0.000024352963
1.65540 0.000024298181
1.66120 0.000024243399
1.66700 0.000024188616
1.67280 0.000024133834
1.67860 0.000024079052
1.68440 0.000024024270
1.69020 0.000023969488
1.69600 0.000023914705
1.70180 0.000023859923
1.70760 0.000023805141
1.71340 0.000023750359
1.71920 0.000023695577
1.72500 0.000023640795
1.73080 0.000023586012
1.73660 0.000023531230
1.74240 0.000023476448
1.74820 0.000023421666
1.75400 0.000023366884
1.75980 0.000023312101
1.76560 0.000023257319
1.77140 0.000023202537
1.77720 0.000023147755
1.78300 0.000023092973
1.78880 0.000023038190
1.79460 0.000022983408
1.80040 0.000022928626
1.80620 0.000022873844
1.81200 0.000022819062
1.81780 0.000022764279
1.82360 0.000022709497
1.82940 0.000022654715
1.83520 0.000022599933
1.84100 0.000022545151
1.84680 0.000022490368
1.85260 0.000022435586
1.85840 0.000022380804
1.86420 0.000022326022
1.87000 0.000022271240
1.87580 0.000022216457
1.88160 0.000022161675
1.88740 0.000022106893
1.89320 0.000022052111
1.89900 0.000021997329
1.90480 0.000021942547
1.91060 0.000021887764
1.91640 0.000021832982
1.92220 0.000021778200
1.92800 0.000021723418
1.93380 0.000021668636
1.93960 0.000021613853
1.94540 0.000021559071
1.95120 0.000021504289
1.95700 0.000021449507
1.96280 0.000021394725
1.96860 0.000021339942
1.97440 0.000021285160
1.98020 0.000021230378
1.98600 0.000021175596
1.99180 0.000021120814
1.99760 0.000021066031
2.00340 0.000021011249
2.00920 0.000020956467
2.01500 0.000020901685
2.02080 0.000020846903
2.02660 0.000020792120
2.03240 0.000020737338
2.03820 0.000020682556
2.04400 0.000020627774
2.04980 0.000020572992
2.05560 0.000020518209
2.06140 0.000020463427
2.06720 0.000020408645
2.07300 0.000020353863
2.07880 0.000020299081
2.08460 0.000020244299
2.09040 0.000020189516
2.09620 0.000020134734
2.10200 0.000020079952
2.10780 0.000020025170
2.11360 0.000019970388
2.11940 0.000019915605
2.12520 0.000019860823
2.13100 0.000019806041
2.13680 0.000019751259
2.14260 0.000019696477
2.14840 0.000019641694
2.15420 0.000019586912
2.16000 0.000019532130
2.16580 0.000019477348
2.17160 0.000019422566
2.17740 0.000019367783
2.18320 0.000019313001
2.18900 0.000019258219
2.19480 0.000019203437
2.20060 0.000019148655
2.20640 0.000019093872
2.21220 0.000019039090
2.21800 0.000018984308
2.22380 0.000018929526
2.22960 0.000018874744
2.23540 0.000018819961
2.24120 0.000018765179
2.24700 0.000018710397
2.25280 0.000018655615
2.25860 0.000018600833
2.26440 0.000018546051
2.27020 0.000018491268
2.27600 0.000018436486
2.28180 0.000018381704
2.28760 0.000018326922
2.29340 0.000018272140
2.29920 0.000018217357
2.30500 0.000018162575
2.31080 0.000018107793
2.31660 0.000018053011
2.32240 0.000017998229
2.32820 0.000017943446
2.33400 0.000017888664
2.33980 0.000017833882
2.34560 0.000017779100
2.35140 0.000017724318
2.35720 0.000017669535
2.36300 0.000017614753
2.36880 0.000017559971
2.37460 0.000017505189
2.38040 0.000017450407
2.38620 0.000017395624
2.39200 0.000017340842
2.39780 0.000017286060
2.40360 0.000017231278
2.40940 0.000017176496
2.41520 0.000017121713
2.42100 0.000017066931
2.42680 0.000017012149
2.43260 0.000016957367
2.43840 0.000016902585
2.44420 0.000016847803
2.45000 0.000016793020
2.45580 0.000016738238
2.46160 0.000016683456
2.46740 0.000016628674
2.47320 0.000016573892
2.47900 0.000016519109
2.48480 0.000016464327
2.49060 0.000016409545
2.49640 0.000016354763
2.50220 0.000016316787
2.50800 0.000016306314
2.51380 0.000016295841
2.51960 0.000016285368
2.52540 0.000016274895
2.53120 0.000016264422
2.53700 0.000016253949
2.54280 0.000016243476
2.54860 0.000016233003
2.55440 0.000016222530
2.56020 0.000016212057
2.56600 0.000016201584
2.57180 0.000016191111
2.57760 0.000016180638
2.58340 0.000016170165
2.58920 0.000016159691
2.59500 0.000016149218
2.60080 0.000016138745
2.60660 0.000016128272
2.61240 0.000016117799
2.61820 0.000016107326
2.62400 0.000016096853
2.62980 0.000016086380
2.63560 0.000016075907
2.64140 0.000016065434
2.64720 0.000016054961
2.65300 0.000016044488
2.65880 0.000016034015
2.66460 0.000016023542
2.67040 0.000016013069
2.67620 0.000016002595
2.68200 0.000015992122
2.68780 0.000015981649
2.69360 0.000015971176
2.69940 0.000015960703
2.70520 0.000015950230
2.71100 0.000015939757
2.71680 0.000015929284
2.72260 0.000015918811
2.72840 0.000015908338
2.73420 0.000015897865
2.74000 0.000015887392
2.74580 0.000015876919
2.75160 0.000015866446
2.75740 0.000015855973
2.76320 0.000015845499
2.76900 0.000015835026
2.77480 0.000015824553
2.78060 0.000015814080
2.78640 0.000015803607
2.79220 0.000015793134
2.79800 0.000015782661
2.80380 0.000015772188
2.80960 0.000015761715
2.81540 0.000015751242
2.82120 0.000015740769
2.82700 0.000015730296
2.83280 0.000015719823
2.83860 0.000015709350
2.84440 0.000015698877
2.85020 0.000015688403
2.85600 0.000015677930
2.86180 0.000015667457
2.86760 0.000015656984
2.87340 0.000015646511
2.87920 0.000015636038
2.88500 0.000015625565
2.89080 0.000015615092
2.89660 0.000015604619
2.90240 0.000015594146
2.90820 0.000015583673
2.91400 0.000015573200
2.91980 0.000015562727
2.92560 0.000015552254
2.93140 0.000015541781
2.93720 0.000015531308
2.94300 0.000015520834
2.94880 0.000015510361
2.95460 0.000015499888
2.96040 0.000015489415
2.96620 0.000015478942
2.97200 0.000015468469
2.97780 0.000015457996
2.98360 0.000015447523
2.98940 0.000015437050
2.99520 0.000015426577
3.00100 0.000015421382
3.00680 0.000015441522
3.01260 0.000015461663
3.01840 0.000015481804
3.02420 0.000015501944
3.03000 0.000015522085
3.03580 0.000015542225
3.04160 0.000015562366
3.04740 0.000015582506
3.05320 0.000015602647
3.05900 0.000015622787
3.06480 0.000015642928
3.07060 0.000015663068
3.07640 0.000015683209
3.08220 0.000015703349
3.08800 0.000015723490
3.09380 0.000015743630
3.09960 0.000015763771
3.10540 0.000015783911
3.11120 0.000015804052
3.11700 0.000015824192
3.12280 0.000015844333
3.12860 0.000015864473
3.13440 0.000015884614
3.14020 0.000015904754
3.14600 0.000015924895
3.15180 0.000015945035
3.15760 0.000015965176
3.16340 0.000015985316
3.16920 0.000016005457
3.17500 0.000016025597
3.18080 0.000016045738
3.18660 0.000016065878
3.19240 0.000016086019
3.19820 0.000016106159
3.20400 0.000016126300
3.20980 0.000016146440
3.21560 0.000016166581
3.22140 0.000016186721
3.22720 0.000016206862
3.23300 0.000016227002
3.23880 0.000016247143
3.24460 0.000016267283
3.25040 0.000016287424
3.25620 0.000016307565
3.26200 0.000016327705
3.26780 0.000016347846
3.27360 0.000016367986
3.27940 0.000016388127
3.28520 0.000016408267
3.29100 0.000016428408
3.29680 0.000016448548
3.30260 0.000016468689
3.30840 0.000016488829
3.31420 0.000016508970
3.32000 0.000016529110
3.32580 0.000016549251
3.33160 0.000016569391
3.33740 0.000016589532
3.34320 0.000016609672
3.34900 0.000016629813
3.35480 0.000016649953
3.36060 0.000016670094
3.36640 0.000016690234
3.37220 0.000016710375
3.37800 0.000016730515
3.38380 0.000016750656
3.38960 0.000016770796
3.39540 0.000016790937
3.40120 0.000016811077
3.40700 0.000016831218
3.41280 0.000016851358
3.41860 0.000016871499
3.42440 0.000016891639
3.43020 0.000016911780
3.43600 0.000016931920
3.44180 0.000016952061
3.44760 0.000016972201
3.45340 0.000016992342
3.45920 0.000017012482
3.46500 0.000017032623
3.47080 0.000017052763
3.47660 0.000017072904
3.48240 0.000017093044
3.48820 0.000017113185
3.49400 0.000017133326
3.49980 0.000017153466
3.50560 0.000017217943
3.51140 0.000017284004
3.51720 0.000017350065
3.52300 0.000017416126
3.52880 0.000017482187
3.53460 0.000017548248
3.54040 0.000017614309
3.54620 0.000017680370
3.55200 0.000017746431
3.55780 0.000017812491
3.56360 0.000017878552
3.56940 0.000017944613
3.57520 0.000018010674
3.58100 0.000018076735
3.58680 0.000018142796
3.59260 0.000018208857
3.59840 0.000018274918
3.60420 0.000018340978
3.61000 0.000018407039
3.61580 0.000018473100
3.62160 0.000018539161
3.62740 0.000018605222
3.63320 0.000018671283
3.63900 0.000018737344
3.64480 0.000018803405
3.65060 0.000018869465
3.65640 0.000018935526
3.66220 0.000019001587
3.66800 0.000019067648
3.67380 0.000019133709
3.67960 0.000019199770
3.68540 0.000019265831
3.69120 0.000019331892
3.69700 0.000019397953
3.70280 0.000019464013
3.70860 0.000019530074
3.71440 0.000019596135
3.72020 0.000019662196
3.72600 0.000019728257
3.73180 0.000019794318
3.73760 0.000019860379
3.74340 0.000019926440
3.74920 0.000019992500
3.75500 0.000020058561
3.76080 0.000020124622
3.76660 0.000020190683
3.77240 0.000020256744
3.77820 0.000020322805
3.78400 0.000020388866
3.78980 0.000020454927
3.79560 0.000020520987
3.80140 0.000020587048
3.80720 0.000020653109
3.81300 0.000020719170
3.81880 0.000020785231
3.82460 0.000020851292
3.83040 0.000020917353
3.83620 0.000020983414
3.84200 0.000021049475
3.84780 0.000021115535
3.85360 0.000021181596
3.85940 0.000021247657
3.86520 0.000021313718
3.87100 0.000021379779
3.87680 0.000021445840
3.88260 0.000021511901
3.88840 0.000021577962
3.89420 0.000021644022
3.90000 0.000021710083
3.90580 0.000021776144
3.91160 0.000021842205
3.91740 0.000021908266
3.92320 0.000021974327
3.92900 0.000022040388
3.93480 0.000022106449
3.94060 0.000022172509
3.94640 0.000022238570
3.95220 0.000022304631
3.95800 0.000022370692
3.96380 0.000022436753
3.96960 0.000022502814
3.97540 0.000022568875
3.98120 0.000022634936
3.98700 0.000022700997
3.99280 0.000022767057
3.99860 0.000022833118
4.00440 0.000022886956
4.01020 0.000022936904
4.01600 0.000022986853
4.02180 0.000023036801
4.02760 0.000023086750
4.03340 0.000023136698
4.03920 0.000023186647
4.04500 0.000023236595
4.05080 0.000023286544
4.05660 0.000023336492
4.06240 0.000023386441
4.06820 0.000023436389
4.07400 0.000023486338
4.07980 0.000023536286
4.08560 0.000023586235
4.09140 0.000023636183
4.09720 0.000023686132
4.10300 0.000023736080
4.10880 0.000023786028
4.11460 0.000023835977
4.12040 0.000023885925
4.12620 0.000023935874
4.13200 0.000023985822
4.13780 0.000024035771
4.14360 0.000024085719
4.14940 0.000024135668
4.15520 0.000024185616
4.16100 0.000024235565
4.16680 0.000024285513
4.17260 0.000024335462
4.17840 0.000024385410
4.18420 0.000024435359
4.19000 0.000024485307
4.19580 0.000024535256
4.20160 0.000024585204
4.20740 0.000024635152
4.21320 0.000024685101
4.21900 0.000024735049
4.22480 0.000024784998
4.23060 0.000024834946
4.23640 0.000024884895
4.24220 0.000024934843
4.24800 0.000024984792
4.25380 0.000025034740
4.25960 0.000025084689
4.26540 0.000025134637
4.27120 0.000025184586
4.27700 0.000025234534
4.28280 0.000025284483
4.28860 0.000025334431
4.29440 0.000025384380
4.30020 0.000025434328
4.30600 0.000025484276
4.31180 0.000025534225
4.31760 0.000025584173
4.32340 0.000025634122
4.32920 0.000025684070
4.33500 0.000025734019
4.34080 0.000025783967
4.34660 0.000025833916
4.35240 0.000025883864
4.35820 0.000025933813
4.36400 0.000025983761
4.36980 0.000026033710
4.37560 0.000026083658
4.38140 0.000026133607
4.38720 0.000026183555
4.39300 0.000026233504
4.39880 0.000026283452
4.40460 0.000026333400
4.41040 0.000026383349
4.41620 0.000026433297
4.42200 0.000026483246
4.42780 0.000026533194
4.43360 0.000026583143
4.43940 0.000026633091
4.44520 0.000026683040
4.45100 0.000026732988
4.45680 0.000026782937
4.46260 0.000026832885
4.46840 0.000026882834
4.47420 0.000026932782
4.48000 0.000026982731
4.48580 0.000027032679
4.49160 0.000027082628
4.49740 0.000027132576
4.50320 0.000027176746
4.50900 0.000027216222
4.51480 0.000027255697
4.52060 0.000027295172
4.52640 0.000027334648
4.53220 0.000027374123
4.53800 0.000027413599
4.54380 0.000027453074
4.54960 0.000027492549
4.55540 0.000027532025
4.56120 0.000027571500
4.56700 0.000027610976
4.57280 0.000027650451
4.57860 0.000027689926
4.58440 0.000027729402
4.59020 0.000027768877
4.59600 0.000027808353
4.60180 0.000027847828
4.60760 0.000027887303
4.61340 0.000027926779
4.61920 0.000027966254
4.62500 0.000028005730
4.63080 0.000028045205
4.63660 0.000028084681
4.64240 0.000028124156
4.64820 0.000028163631
4.65400 0.000028203107
4.65980 0.000028242582
4.66560 0.000028282058
4.67140 0.000028321533
4.67720 0.000028361008
4.68300 0.000028400484
4.68880 0.000028439959
4.69460 0.000028479435
4.70040 0.000028518910
4.70620 0.000028558385
4.71200 0.000028597861
4.71780 0.000028637336
4.72360 0.000028676812
4.72940 0.000028716287
4.73520 0.000028755762
4.74100 0.000028795238
4.74680 0.000028834713
4.75260 0.000028874189
4.75840 0.000028913664
4.76420 0.000028953139
4.77000 0.000028992615
4.77580 0.000029032090
4.78160 0.000029071566
4.78740 0.000029111041
4.79320 0.000029150516
4.79900 0.000029189992
4.80480 0.000029229467
4.81060 0.000029268943
4.81640 0.000029308418
4.82220 0.000029347893
4.82800 0.000029387369
4.83380 0.000029426844
4.83960 0.000029466320
4.84540 0.000029505795
4.85120 0.000029545270
4.85700 0.000029584746
4.86280 0.000029624221
4.86860 0.000029663697
4.87440 0.000029703172
4.88020 0.000029742647
4.88600 0.000029782123
4.89180 0.000029821598
4.89760 0.000029861074
4.90340 0.000029900549
4.90920 0.000029940025
4.91500 0.000029979500
4.92080 0.000030018975
4.92660 0.000030058451
4.93240 0.000030097926
4.93820 0.000030137402
4.94400 0.000030176877
4.94980 0.000030216352
4.95560 0.000030255828
4.96140 0.000030295303
4.96720 0.000030334779
4.97300 0.000030374254
4.97880 0.000030413729
4.98460 0.000030453205
4.99040 0.000030492680
4.99620 0.000030532156
5.00200 0.000030577743
5.00780 0.000030634942
5.01360 0.000030692141
5.01940 0.000030749340
5.02520 0.000030806539
5.03100 0.000030863738
5.03680 0.000030920937
5.04260 0.000030978136
5.04840 0.000031035335
5.05420 0.000031092534
5.06000 0.000031149733
5.06580 0.000031206932
5.07160 0.000031264131
5.07740 0.000031321330
5.08320 0.000031378529
5.08900 0.000031435728
5.09480 0.000031492927
5.10060 0.000031550127
5.10640 0.000031607326
5.11220 0.000031664525
5.11800 0.000031721724
5.12380 0.000031778923
5.12960 0.000031836122
5.13540 0.000031893321
5.14120 0.000031950520
5.14700 0.000032007719
5.15280 0.000032064918
5.15860 0.000032122117
5.16440 0.000032179316
5.17020 0.000032236515
5.17600 0.000032293714
5.18180 0.000032350913
5.18760 0.000032408112
5.19340 0.000032465311
5.19920 0.000032522510
5.20500 0.000032579710
5.21080 0.000032636909
5.21660 0.000032694108
5.22240 0.000032751307
5.22820 0.000032808506
5.23400 0.000032865705
5.23980 0.000032922904
5.24560 0.000032980103
5.25140 0.000033037302
5.25720 0.000033094501
5.26300 0.000033151700
5.26880 0.000033208899
5.27460 0.000033266098
5.28040 0.000033323297
5.28620 0.000033380496
5.29200 0.000033437695
5.29780 0.000033494894
5.30360 0.000033552093
5.30940 0.000033609293
5.31520 0.000033666492
5.32100 0.000033723691
5.32680 0.000033780890
5.33260 0.000033838089
5.33840 0.000033895288
5.34420 0.000033952487
5.35000 0.000034009686
5.35580 0.000034066885
5.36160 0.000034124084
5.36740 0.000034181283
5.37320 0.000034238482
5.37900 0.000034295681
5.38480 0.000034352880
5.39060 0.000034410079
5.39640 0.000034467278
5.40220 0.000034524477
5.40800 0.000034581676
5.41380 0.000034638875
5.41960 0.000034696075
5.42540 0.000034753274
5.43120 0.000034810473
5.43700 0.000034867672
5.44280 0.000034924871
5.44860 0.000034982070
5.45440 0.000035039269
5.46020 0.000035096468
5.46600 0.000035153667
5.47180 0.000035210866
5.47760 0.000035268065
5.48340 0.000035325264
5.48920 0.000035382463
5.49500 0.000035439662
5.50080 0.000035495861
5.50660 0.000035545810
5.51240 0.000035595758
5.51820 0.000035645707
5.52400 0.000035695655
5.52980 0.000035745604
5.53560 0.000035795552
5.54140 0.000035845501
5.54720 0.000035895449
5.55300 0.000035945397
5.55880 0.000035995346
5.56460 0.000036045294
5.57040 0.000036095243
5.57620 0.000036145191
5.58200 0.000036195140
5.58780 0.000036245088
5.59360 0.000036295037
5.59940 0.000036344985
5.60520 0.000036394934
5.61100 0.000036444882
5.61680 0.000036494831
5.62260 0.000036544779
5.62840 0.000036594728
5.63420 0.000036644676
5.64000 0.000036694625
5.64580 0.000036744573
5.65160 0.000036794521
5.65740 0.000036844470
5.66320 0.000036894418
5.66900 0.000036944367
5.67480 0.000036994315
5.68060 0.000037044264
5.68640 0.000037094212
5.69220 0.000037144161
5.69800 0.000037194109
5.70380 0.000037244058
5.70960 0.000037294006
5.71540 0.000037343955
5.72120 0.000037393903
5.72700 0.000037443852
5.73280 0.000037493800
5.73860 0.000037543749
5.74440 0.000037593697
5.75020 0.000037643645
5.75600 0.000037693594
5.76180 0.000037743542
5.76760 0.000037793491
5.77340 0.000037843439
5.77920 0.000037893388
5.78500 0.000037943336
5.79080 0.000037993285
5.79660 0.000038043233
5.80240 0.000038093182
5.80820 0.000038143130
5.81400 0.000038193079
5.81980 0.000038243027
5.82560 0.000038292976
5.83140 0.000038342924
5.83720 0.000038392873
5.84300 0.000038442821
5.84880 0.000038492769
5.85460 0.000038542718
5.86040 0.000038592666
5.86620 0.000038642615
5.87200 0.000038692563
5.87780 0.000038742512
5.88360 0.000038792460
5.88940 0.000038842409
5.89520 0.000038892357
5.90100 0.000038942306
5.90680 0.000038992254
5.91260 0.000039042203
5.91840 0.000039092151
5.92420 0.000039142100
5.93000 0.000039192048
5.93580 0.000039241997
5.94160 0.000039291945
5.94740 0.000039341893
5.95320 0.000039391842
5.95900 0.000039441790
5.96480 0.000039491739
5.97060 0.000039541687
5.97640 0.000039591636
5.98220 0.000039641584
5.98800 0.000039691533
5.99380 0.000039741481
5.99960 0.000039791430
6.00540 0.000039822627
6.01120 0.000039852435
6.01700 0.000039882243
6.02280 0.000039912051
6.02860 0.000039941859
6.03440 0.000039971666
6.04020 0.000040001474
6.04600 0.000040031282
6.05180 0.000040061090
6.05760 0.000040090898
6.06340 0.000040120706
6.06920 0.000040150514
6.07500 0.000040180322
6.08080 0.000040210130
6.08660 0.000040239938
6.09240 0.000040269746
6.09820 0.000040299554
6.10400 0.000040329362
6.10980 0.000040359170
6.11560 0.000040388978
6.12140 0.000040418786
6.12720 0.000040448594
6.13300 0.000040478402
6.13880 0.000040508210
6.14460 0.000040538018
6.15040 0.000040567826
6.15620 0.000040597634
6.16200 0.000040627442
6.16780 0.000040657250
6.17360 0.000040687057
6.17940 0.000040716865
6.18520 0.000040746673
6.19100 0.000040776481
6.19680 0.000040806289
6.20260 0.000040836097
6.20840 0.000040865905
6.21420 0.000040895713
6.22000 0.000040925521
6.22580 0.000040955329
6.23160 0.000040985137
6.23740 0.000041014945
6.24320 0.000041044753
6.24900 0.000041074561
6.25480 0.000041104369
6.26060 0.000041134177
6.26640 0.000041163985
6.27220 0.000041193793
6.27800 0.000041223601
6.28380 0.000041253409
6.28960 0.000041283217
6.29540 0.000041313025
6.30120 0.000041342833
6.30700 0.000041372641
6.31280 0.000041402448
6.31860 0.000041432256
6.32440 0.000041462064
6.33020 0.000041491872
6.33600 0.000041521680
6.34180 0.000041551488
6.34760 0.000041581296
6.35340 0.000041611104
6.35920 0.000041640912
6.36500 0.000041670720
6.37080 0.000041700528
6.37660 0.000041730336
6.38240 0.000041760144
6.38820 0.000041789952
6.39400 0.000041819760
6.39980 0.000041849568
6.40560 0.000041879376
6.41140 0.000041909184
6.41720 0.000041938992
6.42300 0.000041968800
6.42880 0.000041998608
6.43460 0.000042028416
6.44040 0.000042058224
6.44620 0.000042088032
6.45200 0.000042117839
6.45780 0.000042147647
6.46360 0.000042177455
6.46940 0.000042207263
6.47520 0.000042237071
6.48100 0.000042266879
6.48680 0.000042296687
6.49260 0.000042326495
6.49840 0.000042356303
6.50420 0.000042344691
6.51000 0.000042317300
6.51580 0.000042289909
6.52160 0.000042262518
6.52740 0.000042235127
6.53320 0.000042207736
6.53900 0.000042180345
6.54480 0.000042152953
6.55060 0.000042125562
6.55640 0.000042098171
6.56220 0.000042070780
6.56800 0.000042043389
6.57380 0.000042015998
6.57960 0.000041988607
6.58540 0.000041961216
6.59120 0.000041933825
6.59700 0.000041906434
6.60280 0.000041879042
6.60860 0.000041851651
6.61440 0.000041824260
6.62020 0.000041796869
6.62600 0.000041769478
6.63180 0.000041742087
6.63760 0.000041714696
6.64340 0.000041687305
6.64920 0.000041659914
6.65500 0.000041632523
6.66080 0.000041605131
6.66660 0.000041577740
6.67240 0.000041550349
6.67820 0.000041522958
6.68400 0.000041495567
6.68980 0.000041468176
6.69560 0.000041440785
6.70140 0.000041413394
6.70720 0.000041386003
6.71300 0.000041358612
6.71880 0.000041331221
6.72460 0.000041303829
6.73040 0.000041276438
6.73620 0.000041249047
6.74200 0.000041221656
6.74780 0.000041194265
6.75360 0.000041166874
6.75940 0.000041139483
6.76520 0.000041112092
6.77100 0.000041084701
6.77680 0.000041057310
6.78260 0.000041029918
6.78840 0.000041002527
6.79420 0.000040975136
6.80000 0.000040947745
6.80580 0.000040920354
6.81160 0.000040892963
6.81740 0.000040865572
6.82320 0.000040838181
6.82900 0.000040810790
6.83480 0.000040783399
6.84060 0.000040756007
6.84640 0.000040728616
6.85220 0.000040701225
6.85800 0.000040673834
6.86380 0.000040646443
6.86960 0.000040619052
6.87540 0.000040591661
6.88120 0.000040564270
6.88700 0.000040536879
6.89280 0.000040509488
6.89860 0.000040482097
6.90440 0.000040454705
6.91020 0.000040427314
6.91600 0.000040399923
6.92180 0.000040372532
6.92760 0.000040345141
6.93340 0.000040317750
6.93920 0.000040290359
6.94500 0.000040262968
6.95080 0.000040235577
6.95660 0.000040208186
6.96240 0.000040180794
6.96820 0.000040153403
6.97400 0.000040126012
6.97980 0.000040098621
6.98560 0.000040071230
6.99140 0.000040043839
6.99720 0.000040016448
7.00300 0.000040011975
7.00880 0.000040028893
7.01460 0.000040045811
7.02040 0.000040062729
7.02620 0.000040079647
7.03200 0.000040096565
7.03780 0.000040113483
7.04360 0.000040130401
7.04940 0.000040147320
7.05520 0.000040164238
7.06100 0.000040181156
7.06680 0.000040198074
7.07260 0.000040214992
7.07840 0.000040231910
7.08420 0.000040248828
7.09000 0.000040265746
7.09580 0.000040282664
7.10160 0.000040299582
7.10740 0.000040316500
7.11320 0.000040333418
7.11900 0.000040350336
7.12480 0.000040367254
7.13060 0.000040384172
7.13640 0.000040401090
7.14220 0.000040418008
7.14800 0.000040434926
7.15380 0.000040451844
7.15960 0.000040468762
7.16540 0.000040485680
7.17120 0.000040502598
7.17700 0.000040519516
7.18280 0.000040536434
7.18860 0.000040553352
7.19440 0.000040570270
7.20020 0.000040587188
7.20600 0.000040604106
7.21180 0.000040621024
7.21760 0.000040637942
7.22340 0.000040654860
7.22920 0.000040671778
7.23500 0.000040688696
7.24080 0.000040705615
7.24660 0.000040722533
7.25240 0.000040739451
7.25820 0.000040756369
7.26400 0.000040773287
7.26980 0.000040790205
7.27560 0.000040807123
7.28140 0.000040824041
7.28720 0.000040840959
7.29300 0.000040857877
7.29880 0.000040874795
7.30460 0.000040891713
7.31040 0.000040908631
7.31620 0.000040925549
7.32200 0.000040942467
7.32780 0.000040959385
7.33360 0.000040976303
7.33940 0.000040993221
7.34520 0.000041010139
7.35100 0.000041027057
7.35680 0.000041043975
7.36260 0.000041060893
7.36840 0.000041077811
7.37420 0.000041094729
7.38000 0.000041111647
7.38580 0.000041128565
7.39160 0.000041145483
7.39740 0.000041162401
7.40320 0.000041179319
7.40900 0.000041196237
7.41480 0.000041213155
7.42060 0.000041230073
7.42640 0.000041246991
7.43220 0.000041263910
7.43800 0.000041280828
7.44380 0.000041297746
7.44960 0.000041314664
7.45540 0.000041331582
7.46120 0.000041348500
7.46700 0.000041365418
7.47280 0.000041382336
7.47860 0.000041399254
7.48440 0.000041416172
7.49020 0.000041433090
7.49600 0.000041450008
7.50180 0.000041469926
7.50760 0.000041496512
7.51340 0.000041523097
7.51920 0.000041549683
7.52500 0.000041576268
7.53080 0.000041602854
7.53660 0.000041629439
7.54240 0.000041656024
7.54820 0.000041682610
7.55400 0.000041709195
7.55980 0.000041735781
7.56560 0.000041762366
7.57140 0.000041788952
7.57720 0.000041815537
7.58300 0.000041842123
7.58880 0.000041868708
7.59460 0.000041895294
7.60040 0.000041921879
7.60620 0.000041948465
7.61200 0.000041975050
7.61780 0.000042001636
7.62360 0.000042028221
7.62940 0.000042054807
7.63520 0.000042081392
7.64100 0.000042107978
7.64680 0.000042134563
7.65260 0.000042161149
7.65840 0.000042187734
7.66420 0.000042214319
7.67000 0.000042240905
7.67580 0.000042267490
7.68160 0.000042294076
7.68740 0.000042320661
7.69320 0.000042347247
7.69900 0.000042373832
7.70480 0.000042400418
7.71060 0.000042427003
7.71640 0.000042453589
7.72220 0.000042480174
7.72800 0.000042506760
7.73380 0.000042533345
7.73960 0.000042559931
7.74540 0.000042586516
7.75120 0.000042613102
7.75700 0.000042639687
7.76280 0.000042666273
7.76860 0.000042692858
7.77440 0.000042719444
7.78020 0.000042746029
7.78600 0.000042772614
7.79180 0.000042799200
7.79760 0.000042825785
7.80340 0.000042852371
7.80920 0.000042878956
7.81500 0.000042905542
7.82080 0.000042932127
7.82660 0.000042958713
7.83240 0.000042985298
7.83820 0.000043011884
7.84400 0.000043038469
7.84980 0.000043065055
7.85560 0.000043091640
7.86140 0.000043118226
7.86720 0.000043144811
7.87300 0.000043171397
7.87880 0.000043197982
7.88460 0.000043224568
7.89040 0.000043251153
7.89620 0.000043277739
7.90200 0.000043304324
7.90780 0.000043330909
7.91360 0.000043357495
7.91940 0.000043384080
7.92520 0.000043410666
7.93100 0.000043437251
7.93680 0.000043463837
7.94260 0.000043490422
7.94840 0.000043517008
7.95420 0.000043543593
7.96000 0.000043570179
7.96580 0.000043596764
7.97160 0.000043623350
7.97740 0.000043649935
7.98320 0.000043676521
7.98900 0.000043703106
7.99480 0.000043729692
8.00060 0.000043755527
8.00640 0.000043774862
8.01220 0.000043794197
8.01800 0.000043813532
8.02380 0.000043832867
8.02960 0.000043852201
8.03540 0.000043871536
8.04120 0.000043890871
8.04700 0.000043910206
8.05280 0.000043929541
8.05860 0.000043948876
8.06440 0.000043968211
8.07020 0.000043987546
8.07600 0.000044006881
8.08180 0.000044026216
8.08760 0.000044045550
8.09340 0.000044064885
8.09920 0.000044084220
8.10500 0.000044103555
8.11080 0.000044122890
8.11660 0.000044142225
8.12240 0.000044161560
8.12820 0.000044180895
8.13400 0.000044200230
8.13980 0.000044219564
8.14560 0.000044238899
8.15140 0.000044258234
8.15720 0.000044277569
8.16300 0.000044296904
8.16880 0.000044316239
8.17460 0.000044335574
8.18040 0.000044354909
8.18620 0.000044374244
8.19200 0.000044393578
8.19780 0.000044412913
8.20360 0.000044432248
8.20940 0.000044451583
8.21520 0.000044470918
8.22100 0.000044490253
8.22680 0.000044509588
8.23260 0.000044528923
8.23840 0.000044548258
8.24420 0.000044567592
8.25000 0.000044586927
8.25580 0.000044606262
8.26160 0.000044625597
8.26740 0.000044644932
8.27320 0.000044664267
8.27900 0.000044683602
8.28480 0.000044702937
8.29060 0.000044722272
8.29640 0.000044741607
8.30220 0.000044760941
8.30800 0.000044780276
8.31380 0.000044799611
8.31960 0.000044818946
8.32540 0.000044838281
8.33120 0.000044857616
8.33700 0.000044876951
8.34280 0.000044896286
8.34860 0.000044915621
8.35440 0.000044934955
8.36020 0.000044954290
8.36600 0.000044973625
8.37180 0.000044992960
8.37760 0.000045012295
8.38340 0.000045031630
8.38920 0.000045050965
8.39500 0.000045070300
8.40080 0.000045089635
8.40660 0.000045108969
8.41240 0.000045128304
8.41820 0.000045147639
8.42400 0.000045166974
8.42980 0.000045186309
8.43560 0.000045205644
8.44140 0.000045224979
8.44720 0.000045244314
8.45300 0.000045263649
8.45880 0.000045282983
8.46460 0.000045302318
8.47040 0.000045321653
8.47620 0.000045340988
8.48200 0.000045360323
8.48780 0.000045379658
8.49360 0.000045398993
8.49940 0.000045418328
8.50520 0.000045416716
8.51100 0.000045412688
8.51680 0.000045408660
8.52260 0.000045404632
8.52840 0.000045400604
8.53420 0.000045396576
8.54000 0.000045392548
8.54580 0.000045388520
8.55160 0.000045384492
8.55740 0.000045380464
8.56320 0.000045376435
8.56900 0.000045372407
8.57480 0.000045368379
8.58060 0.000045364351
8.58640 0.000045360323
8.59220 0.000045356295
8.59800 0.000045352267
8.60380 0.000045348239
8.60960 0.000045344211
8.61540 0.000045340183
8.62120 0.000045336154
8.62700 0.000045332126
8.63280 0.000045328098
8.63860 0.000045324070
8.64440 0.000045320042
8.65020 0.000045316014
8.65600 0.000045311986
8.66180 0.000045307958
8.66760 0.000045303930
8.67340 0.000045299902
8.67920 0.000045295873
8.68500 0.000045291845
8.69080 0.000045287817
8.69660 0.000045283789
8.70240 0.000045279761
8.70820 0.000045275733
8.71400 0.000045271705
8.71980 0.000045267677
8.72560 0.000045263649
8.73140 0.000045259621
8.73720 0.000045255592
8.74300 0.000045251564
8.74880 0.000045247536
8.75460 0.000045243508
8.76040 0.000045239480
8.76620 0.000045235452
8.77200 0.000045231424
8.77780 0.000045227396
8.78360 0.000045223368
8.78940 0.000045219339
8.79520 0.000045215311
8.80100 0.000045211283
8.80680 0.000045207255
8.81260 0.000045203227
8.81840 0.000045199199
8.82420 0.000045195171
8.83000 0.000045191143
8.83580 0.000045187115
8.84160 0.000045183087
8.84740 0.000045179058
8.85320 0.000045175030
8.85900 0.000045171002
8.86480 0.000045166974
8.87060 0.000045162946
8.87640 0.000045158918
8.88220 0.000045154890
8.88800 0.000045150862
8.89380 0.000045146834
8.89960 0.000045142806
8.90540 0.000045138777
8.91120 0.000045134749
8.91700 0.000045130721
8.92280 0.000045126693
8.92860 0.000045122665
8.93440 0.000045118637
8.94020 0.000045114609
8.94600 0.000045110581
8.95180 0.000045106553
8.95760 0.000045102525
8.96340 0.000045098496
8.96920 0.000045094468
8.97500 0.000045090440
8.98080 0.000045086412
8.98660 0.000045082384
8.99240 0.000045078356
8.99820 0.000045074328
9.00400 0.000045065855
9.00980 0.000045055382
9.01560 0.000045044909
9.02140 0.000045034436
9.02720 0.000045023963
9.03300 0.000045013490
9.03880 0.000045003016
9.04460 0.000044992543
9.05040 0.000044982070
9.05620 0.000044971597
9.06200 0.000044961124
9.06780 0.000044950651
9.07360 0.000044940178
9.07940 0.000044929705
9.08520 0.000044919232
9.09100 0.000044908759
9.09680 0.000044898286
9.10260 0.000044887813
9.10840 0.000044877340
9.11420 0.000044866867
9.12000 0.000044856394
9.12580 0.000044845920
9.13160 0.000044835447
9.13740 0.000044824974
9.14320 0.000044814501
9.14900 0.000044804028
9.15480 0.000044793555
9.16060 0.000044783082
9.16640 0.000044772609
9.17220 0.000044762136
9.17800 0.000044751663
9.18380 0.000044741190
9.18960 0.000044730717
9.19540 0.000044720244
9.20120 0.000044709771
9.20700 0.000044699298
9.21280 0.000044688824
9.21860 0.000044678351
9.22440 0.000044667878
9.23020 0.000044657405
9.23600 0.000044646932
9.24180 0.000044636459
9.24760 0.000044625986
9.25340 0.000044615513
9.25920 0.000044605040
9.26500 0.000044594567
9.27080 0.000044584094
9.27660 0.000044573621
9.28240 0.000044563148
9.28820 0.000044552675
9.29400 0.000044542202
9.29980 0.000044531728
9.30560 0.000044521255
9.31140 0.000044510782
9.31720 0.000044500309
9.32300 0.000044489836
9.32880 0.000044479363
9.33460 0.000044468890
9.34040 0.000044458417
9.34620 0.000044447944
9.35200 0.000044437471
9.35780 0.000044426998
9.36360 0.000044416525
9.36940 0.000044406052
9.37520 0.000044395579
9.38100 0.000044385106
9.38680 0.000044374632
9.39260 0.000044364159
9.39840 0.000044353686
9.40420 0.000044343213
9.41000 0.000044332740
9.41580 0.000044322267
9.42160 0.000044311794
9.42740 0.000044301321
9.43320 0.000044290848
9.43900 0.000044280375
9.44480 0.000044269902
9.45060 0.000044259429
9.45640 0.000044248956
9.46220 0.000044238483
9.46800 0.000044228010
9.47380 0.000044217537
9.47960 0.000044207063
9.48540 0.000044196590
9.49120 0.000044186117
9.49700 0.000044175644
9.50280 0.000044165949
9.50860 0.000044157087
9.51440 0.000044148225
9.52020 0.000044139364
9.52600 0.000044130502
9.53180 0.000044121640
9.53760 0.000044112778
9.54340 0.000044103916
9.54920 0.000044095054
9.55500 0.000044086193
9.56080 0.000044077331
9.56660 0.000044068469
9.57240 0.000044059607
9.57820 0.000044050745
9.58400 0.000044041883
9.58980 0.000044033022
9.59560 0.000044024160
9.60140 0.000044015298
9.60720 0.000044006436
9.61300 0.000043997574
9.61880 0.000043988713
9.62460 0.000043979851
9.63040 0.000043970989
9.63620 0.000043962127
9.64200 0.000043953265
9.64780 0.000043944403
9.65360 0.000043935542
9.65940 0.000043926680
9.66520 0.000043917818
9.67100 0.000043908956
9.67680 0.000043900094
9.68260 0.000043891232
9.68840 0.000043882371
9.69420 0.000043873509
9.70000 0.000043864647
9.70580 0.000043855785
9.71160 0.000043846923
9.71740 0.000043838061
9.72320 0.000043829200
9.72900 0.000043820338
9.73480 0.000043811476
9.74060 0.000043802614
9.74640 0.000043793752
9.75220 0.000043784891
9.75800 0.000043776029
9.76380 0.000043767167
9.76960 0.000043758305
9.77540 0.000043749443
9.78120 0.000043740581
9.78700 0.000043731720
9.79280 0.000043722858
9.79860 0.000043713996
9.80440 0.000043705134
9.81020 0.000043696272
9.81600 0.000043687410
9.82180 0.000043678549
9.82760 0.000043669687
9.83340 0.000043660825
9.83920 0.000043651963
9.84500 0.000043643101
9.85080 0.000043634239
9.85660 0.000043625378
9.86240 0.000043616516
9.86820 0.000043607654
9.87400 0.000043598792
9.87980 0.000043589930
9.88560 0.000043581069
9.89140 0.000043572207
9.89720 0.000043563345
9.90300 0.000043554483
9.90880 0.000043545621
9.91460 0.000043536759
9.92040 0.000043527898
9.92620 0.000043519036
9.93200 0.000043510174
9.93780 0.000043501312
9.94360 0.000043492450
9.94940 0.000043483588
9.95520 0.000043474727
9.96100 0.000043465865
9.96680 0.000043457003
9.97260 0.000043448141
9.97840 0.000043439279
9.98420 0.000043430417
9.99000 0.000043421556
9.99580 0.000043412694
10.00160 0.000043411833
10.00740 0.000043431973
10.01320 0.000043452114
10.01900 0.000043472254
10.02480 0.000043492395
10.03060 0.000043512535
10.03640 0.000043532676
10.04220 0.000043552816
10.04800 0.000043572957
10.05380 0.000043593097
10.05960 0.000043613238
10.06540 0.000043633378
10.07120 0.000043653519
10.07700 0.000043673659
10.08280 0.000043693800
10.08860 0.000043713940
10.09440 0.000043734081
10.10020 0.000043754221
10.10600 0.000043774362
10.11180 0.000043794502
10.11760 0.000043814643
10.12340 0.000043834783
10.12920 0.000043854924
10.13500 0.000043875064
10.14080 0.000043895205
10.14660 0.000043915345
10.15240 0.000043935486
10.15820 0.000043955626
10.16400 0.000043975767
10.16980 0.000043995908
10.17560 0.000044016048
10.18140 0.000044036189
10.18720 0.000044056329
10.19300 0.000044076470
10.19880 0.000044096610
10.20460 0.000044116751
10.21040 0.000044136891
10.21620 0.000044157032
10.22200 0.000044177172
10.22780 0.000044197313
10.23360 0.000044217453
10.23940 0.000044237594
10.24520 0.000044257734
10.25100 0.000044277875
10.25680 0.000044298015
10.26260 0.000044318156
10.26840 0.000044338296
10.27420 0.000044358437
10.28000 0.000044378577
10.28580 0.000044398718
10.29160 0.000044418858
10.29740 0.000044438999
10.30320 0.000044459139
10.30900 0.000044479280
10.31480 0.000044499420
10.32060 0.000044519561
10.32640 0.000044539701
10.33220 0.000044559842
10.33800 0.000044579982
10.34380 0.000044600123
10.34960 0.000044620263
10.35540 0.000044640404
10.36120 0.000044660544
10.36700 0.000044680685
10.37280 0.000044700825
10.37860 0.000044720966
10.38440 0.000044741106
10.39020 0.000044761247
10.39600 0.000044781388
10.40180 0.000044801528
10.40760 0.000044821669
10.41340 0.000044841809
10.41920 0.000044861950
10.42500 0.000044882090
10.43080 0.000044902231
10.43660 0.000044922371
10.44240 0.000044942512
10.44820 0.000044962652
10.45400 0.000044982793
10.45980 0.000045002933
10.46560 0.000045023074
10.47140 0.000045043214
10.47720 0.000045063355
10.48300 0.000045083495
10.48880 0.000045103636
10.49460 0.000045123776
10.50040 0.000045140083
10.50620 0.000045104636
10.51200 0.000045069188
10.51780 0.000045033741
10.52360 0.000044998294
10.52940 0.000044962847
10.53520 0.000044927399
10.54100 0.000044891952
10.54680 0.000044856505
10.55260 0.000044821057
10.55840 0.000044785610
10.56420 0.000044750163
10.57000 0.000044714715
10.57580 0.000044679268
10.58160 0.000044643821
10.58740 0.000044608374
10.59320 0.000044572926
10.59900 0.000044537479
10.60480 0.000044502032
10.61060 0.000044466584
10.61640 0.000044431137
10.62220 0.000044395690
10.62800 0.000044360242
10.63380 0.000044324795
10.63960 0.000044289348
10.64540 0.000044253901
10.65120 0.000044218453
10.65700 0.000044183006
10.66280 0.000044147559
10.66860 0.000044112111
10.67440 0.000044076664
10.68020 0.000044041217
10.68600 0.000044005769
10.69180 0.000043970322
10.69760 0.000043934875
10.70340 0.000043899428
10.70920 0.000043863980
10.71500 0.000043828533
10.72080 0.000043793086
10.72660 0.000043757638
10.73240 0.000043722191
10.73820 0.000043686744
10.74400 0.000043651296
10.74980 0.000043615849
10.75560 0.000043580402
10.76140 0.000043544955
10.76720 0.000043509507
10.77300 0.000043474060
10.77880 0.000043438613
10.78460 0.000043403165
10.79040 0.000043367718
10.79620 0.000043332271
10.80200 0.000043296823
10.80780 0.000043261376
10.81360 0.000043225929
10.81940 0.000043190481
10.82520 0.000043155034
10.83100 0.000043119587
10.83680 0.000043084140
10.84260 0.000043048692
10.84840 0.000043013245
10.85420 0.000042977798
10.86000 0.000042942350
10.86580 0.000042906903
10.87160 0.000042871456
10.87740 0.000042836008
10.88320 0.000042800561
10.88900 0.000042765114
10.89480 0.000042729667
10.90060 0.000042694219
10.90640 0.000042658772
10.91220 0.000042623325
10.91800 0.000042587877
10.92380 0.000042552430
10.92960 0.000042516983
10.93540 0.000042481535
10.94120 0.000042446088
10.94700 0.000042410641
10.95280 0.000042375194
10.95860 0.000042339746
10.96440 0.000042304299
10.97020 0.000042268852
10.97600 0.000042233404
10.98180 0.000042197957
10.98760 0.000042162510
10.99340 0.000042127062
10.99920 0.000042091615
11.00500 0.000042071447
11.01080 0.000042053723
11.01660 0.000042036000
11.02240 0.000042018276
11.02820 0.000042000552
11.03400 0.000041982829
11.03980 0.000041965105
11.04560 0.000041947381
11.05140 0.000041929658
11.05720 0.000041911934
11.06300 0.000042103095
11.06880 0.000042488955
11.07460 0.000042874474
11.08040 0.000044530464
11.08620 0.000063333741
11.09200 0.000082121066
11.09780 0.000100892437
11.10360 0.000133463708
11.10940 0.000174446738
11.11520 0.000215394927
11.12100 0.000260567744
11.12680 0.000326138868
11.13260 0.000391654158
11.13840 0.000457113613
11.14420 0.000544343907
11.15000 0.000639811174
11.15580 0.000735196951
11.16160 0.000840362418
11.16740 0.000971312557
11.17320 0.001102150742
11.17900 0.001232876972
11.18480 0.001386703382
11.19060 0.001545231820
11.19640 0.001703624358
11.20220 0.001870649252
11.20800 0.002051872674
11.21380 0.002232940437
11.21960 0.002413852541
11.22540 0.002608515966
11.23120 0.002804041529
11.23700 0.002999398644
11.24280 0.003195284218
11.24860 0.003391747112
11.25440 0.003588040320
11.26020 0.003783988063
11.26600 0.003974846589
11.27180 0.004165539805
11.27760 0.004356067711
11.28340 0.004548573207
11.28920 0.004742423534
11.29500 0.004936105408
11.30080 0.005131805647
11.30660 0.005340997290
11.31240 0.005550006827
11.31820 0.005758834259
11.32400 0.005988504630
11.32980 0.006227431950
11.33560 0.006466150869
11.34140 0.006722370827
11.34720 0.007034001290
11.35300 0.007345359988
11.35880 0.007656446921
11.36460 0.008062695834
11.37040 0.008493475407
11.37620 0.008923879113
11.38200 0.009406607059
11.38780 0.009989000319
11.39360 0.010570885319
11.39940 0.011152262059
11.40520 0.011915773236
11.41100 0.012699682674
11.41680 0.013482907071
11.42260 0.014404172627
11.42840 0.015495298361
11.43420 0.016585470158
11.44000 0.017674688018
11.44580 0.019386158596
11.45160 0.021096132787
11.45740 0.022804610591
11.46320 0.024926705850
11.46900 0.027384075945
11.47480 0.029839293899
11.48060 0.032394850164
11.48640 0.035836027843
11.49220 0.039274188763
11.49800 0.042709332926
11.50380 0.047030246369
11.50960 0.051819365219
11.51540 0.056609624024
11.52120 0.061948367213
11.52700 0.069386784355
11.53280 0.076826971749
11.53860 0.084268929394
11.54440 0.093363210580
11.55020 0.102984893658
11.55600 0.112608865113
11.56180 0.122841733614
11.56760 0.134425214611
11.57340 0.146011449292
11.57920 0.157600437657
11.58500 0.170728082578
11.59080 0.184104620332
11.59660 0.197484335697
11.60240 0.210827624997
11.60820 0.224117970609
11.61400 0.237411471067
11.61980 0.250708126370
11.62560 0.262039335155
11.63140 0.273302915217
11.63720 0.284569165388
11.64300 0.294532199797
11.64880 0.303278622316
11.65460 0.312027114927
11.66040 0.320529656829
11.66620 0.325685531343
11.67200 0.330842621565
11.67780 0.336000927495
11.68360 0.339161848045
11.68940 0.341101997370
11.69520 0.343042597787
11.70100 0.344779467800
11.70680 0.345536552926
11.71260 0.346293808032
11.71840 0.347051233118
11.72420 0.347261120768
11.73000 0.347262373251
11.73580 0.347263616258
11.74160 0.347203416054
11.74740 0.346981909125
11.75320 0.346760339901
11.75900 0.346538708381
11.76480 0.346398149478
11.77060 0.346274452625
11.77640 0.346150716718
11.78220 0.346059071121
11.78800 0.346019975634
11.79380 0.345980861167
11.79960 0.345941727721
11.80540 0.345986654866
11.81120 0.346037811802
11.81700 0.346088971149
11.82280 0.346149449822
11.82860 0.346219916702
11.83440 0.346290390563
11.84020 0.346361435029
11.84600 0.346448269961
11.85180 0.346535115742
11.85760 0.346621972373
11.86340 0.346718426005
11.86920 0.346821660249
11.87500 0.346924909212
11.88080 0.347031181381
11.88660 0.347156274248
11.89240 0.347281386993
11.89820 0.347406519614
11.90400 0.347528400472
11.90980 0.347648828020
11.91560 0.347769274325
11.92140 0.347888422082
11.92720 0.348003447701
11.93300 0.348118490786
11.93880 0.348233551337
11.94460 0.348342792829
11.95040 0.348450527656
11.95620 0.348558278211
11.96200 0.348676444233
11.96780 0.348814390277
11.97360 0.348952359170
11.97940 0.349090350911
11.98520 0.349249879370
11.99100 0.349411918417
11.99680 0.349573985977
12.00260 0.349687905276
12.00840 0.349742484640
12.01420 0.349796990383
12.02000 0.349851422504
12.02580 0.349916938233
12.03160 0.349982374629
12.03740 0.350047731695
12.04320 0.350105091669
12.04900 0.350155944835
12.05480 0.350206726020
12.06060 0.350255608509
12.06640 0.350288592482
12.07220 0.350321513525
12.07800 0.350354371638
12.08380 0.350355132065
12.08960 0.350338989925
12.09540 0.350322809941
12.10120 0.350296214429
12.10700 0.350229815489
12.11280 0.350163404460
12.11860 0.350096981344
12.12440 0.349998988646
12.13020 0.349890961640
12.13600 0.349782943928
12.14180 0.349654193008
12.14760 0.349479379460
12.15340 0.349304609587
12.15920 0.349129883388
12.16500 0.348920726611
12.17080 0.348706116801
12.17660 0.348491571258
12.18240 0.348265774089
12.18820 0.348024020301
12.19400 0.347782344873
12.19980 0.347540747805
12.20560 0.347262733975
12.21140 0.346983514270
12.21720 0.346704392424
12.22300 0.346412161971
12.22880 0.346107713344
12.23460 0.345803375756
12.24040 0.345498265405
12.24620 0.345181338288
12.25200 0.344864528832
12.25780 0.344547837036
12.26360 0.344223171093
12.26940 0.343893683280
12.27520 0.343564319870
12.28100 0.343239815634
12.28680 0.342938154366
12.29260 0.342636603288
12.29840 0.342335162400
12.30420 0.342047160228
12.31000 0.341764337560
12.31580 0.341481615543
12.32160 0.341207234721
12.32740 0.340954576091
12.33320 0.340702002625
12.33900 0.340449514321
12.34480 0.340245631530
12.35060 0.340051914499
12.35640 0.339858252198
12.36220 0.339683273161
12.36800 0.339538814313
12.37380 0.339394384683
12.37960 0.339249984271
12.38540 0.339208821516
12.39120 0.339175277390
12.39700 0.339141704836
12.40280 0.339155830156
12.40860 0.339221024228
12.41440 0.339286138422
12.42020 0.339353376617
12.42600 0.339482226327
12.43180 0.339610962872
12.43760 0.339739586250
12.44340 0.339922597702
12.44920 0.340143929006
12.45500 0.340365098671
12.46080 0.340590377961
12.46660 0.340842181817
12.47240 0.341093807877
12.47820 0.341345256140
12.48400 0.341613369263
12.48980 0.341888873008
12.49560 0.342164186200
12.50140 0.342464229824
12.50720 0.342842533533
12.51300 0.343220852176
12.51880 0.343599185753
12.52460 0.343963800186
12.53040 0.344324846127
12.53620 0.344685906304
12.54200 0.345039165410
12.54780 0.345377589054
12.55360 0.345716026024
12.55940 0.346054476320
12.56520 0.346322804929
12.57100 0.346583051381
12.57680 0.346843308015
12.58260 0.347084867559
12.58840 0.347303411735
12.59420 0.347521964415
12.60000 0.347740525599
12.60580 0.347883646848
12.61160 0.348026773569
12.61740 0.348169905761
12.62320 0.348266603416
12.62900 0.348325571409
12.63480 0.348384541492
12.64060 0.348438762736
12.64640 0.348451810358
12.65220 0.348464858223
12.65800 0.348477906330
12.66380 0.348439075209
12.66960 0.348372936711
12.67540 0.348306795275
12.68120 0.348234058813
12.68700 0.348136048980
12.69280 0.348038034927
12.69860 0.347940016655
12.70440 0.347816233238
12.71020 0.347684247745
12.71600 0.347552256668
12.72180 0.347403043582
12.72760 0.347215564730
12.73340 0.347028078065
12.73920 0.346840583587
12.74500 0.346643856755
12.75080 0.346445645783
12.75660 0.346247426569
12.76240 0.346046263124
12.76820 0.345840931920
12.77400 0.345635592188
12.77980 0.345430243928
12.78560 0.345265545014
12.79140 0.345102291301
12.79720 0.344939030752
12.80300 0.344789542788
12.80880 0.344652909592
12.81460 0.344516270630
12.82040 0.344387649337
12.82620 0.344367341157
12.83200 0.344347031884
12.83780 0.344326721517
12.84360 0.344327208473
12.84940 0.344340405569
12.85520 0.344353602917
12.86100 0.344377613616
12.86680 0.344453528922
12.87260 0.344529446998
12.87840 0.344605367844
12.88420 0.344713986160
12.89000 0.344835063931
12.89580 0.344956146287
12.90160 0.345083461163
12.90740 0.345227129534
12.91320 0.345370803396
12.91900 0.345514482747
12.92480 0.345706710869
12.93060 0.345909059816
12.93640 0.346111416608
12.94220 0.346319255537
12.94800 0.346536060640
12.95380 0.346752874168
12.95960 0.346969696121
12.96540 0.347213727560
12.97120 0.347459783449
12.97700 0.347705848935
12.98280 0.347938156090
12.98860 0.348155720641
12.99440 0.348373293644
13.00020 0.348582380328
13.00600 0.348553487862
13.01180 0.348524344794
13.01760 0.348494951126
13.02340 0.348393226236
13.02920 0.348240495891
13.03500 0.348087673291
13.04080 0.347928061008
13.04660 0.347726533202
13.05240 0.347524975790
13.05820 0.347323388773
13.06400 0.347036636194
13.06980 0.346711677740
13.07560 0.346386849372
13.08140 0.346052878297
13.08720 0.345689925151
13.09300 0.345327151881
13.09880 0.344964558488
13.10460 0.344577140401
13.11040 0.344183415989
13.11620 0.343789912424
13.12200 0.343391758922
13.12780 0.342984584145
13.13360 0.342577648605
13.13940 0.342170952302
13.14520 0.341761311799
13.15100 0.341351547609
13.15680 0.340942027291
13.16260 0.340530701036
13.16840 0.340117100144
13.17420 0.339703749104
13.18000 0.339290647918
13.18580 0.338902538320
13.19160 0.338514646129
13.19740 0.338126971344
13.20320 0.337762868984
13.20900 0.337417916827
13.21480 0.337073126453
13.22060 0.336732327869
13.22640 0.336424857548
13.23220 0.336117500266
13.23800 0.335810256024
13.24380 0.335517744412
13.24960 0.335233015982
13.25540 0.334948371136
13.26120 0.334670849867
13.26700 0.334420371668
13.27280 0.334169932045
13.27860 0.333919531000
13.28440 0.333678748076
13.29020 0.333441037041
13.29600 0.333203347836
13.30180 0.332985410609
13.30760 0.332811284635
13.31340 0.332637096011
13.31920 0.332462844737
13.32500 0.332299559618
13.33080 0.332137960587
13.33660 0.331976281861
13.34240 0.331825182621
13.34820 0.331689079882
13.35400 0.331552863058
13.35980 0.331416532147
13.36560 0.331274694755
13.37140 0.331132558038
13.37720 0.330990314712
13.38300 0.330845658390
13.38880 0.330698747368
13.39460 0.330551735717
13.40040 0.330401094094
13.40620 0.330202742471
13.41200 0.330004358999
13.41780 0.329805943680
13.42360 0.329597441966
13.42940 0.329382781649
13.43520 0.329168111314
13.44100 0.328939742726
13.44680 0.328645723438
13.45260 0.328351801340
13.45840 0.328057976432
13.46420 0.327752733671
13.47000 0.327443219978
13.47580 0.327133825007
13.48160 0.326804848775
13.48740 0.326424340623
13.49320 0.326044048083
13.49900 0.325663971156
13.50480 0.325648044567
13.51060 0.325707725040
13.51640 0.325767152436
13.52220 0.325813109416
13.52800 0.325837150323
13.53380 0.325860887951
13.53960 0.325884322299
13.54540 0.325902614146
13.55120 0.325920237044
13.55700 0.325937549194
13.56280 0.325951928960
13.56860 0.325963183310
13.57440 0.325974119129
13.58020 0.325985636431
13.58600 0.326022054910
13.59180 0.326058192192
13.59760 0.326094048277
13.60340 0.326137915461
13.60920 0.326187370835
13.61500 0.326236565188
13.62080 0.326294274290
13.62660 0.326406622447
13.63240 0.326518800139
13.63820 0.326630807366
13.64400 0.326753606463
13.64980 0.326881187206
13.65560 0.327008620041
13.66140 0.327149118725
13.66720 0.327331046566
13.67300 0.327512904029
13.67880 0.327694691113
13.68460 0.327882296370
13.69040 0.328071376793
13.69620 0.328260397323
13.70200 0.328467706340
13.70780 0.328709867811
13.71360 0.328952044373
13.71940 0.329194236028
13.72520 0.329426408487
13.73100 0.329657423320
13.73680 0.329888437519
13.74260 0.330097664293
13.74840 0.330280026569
13.75420 0.330462320056
13.76000 0.330644544752
13.76580 0.330743199165
13.77160 0.330841668020
13.77740 0.330939951316
13.78320 0.330927438068
13.78900 0.330824650774
13.79480 0.330721398155
13.80060 0.330593545526
13.80640 0.330255881066
13.81220 0.329917426395
13.81800 0.329578181513
13.82380 0.329000695588
13.82960 0.328297028809
13.83540 0.327592068525
13.84120 0.326821608362
13.84700 0.325803470747
13.85280 0.324783609569
13.85860 0.323762024828
13.86440 0.322482233657
13.87020 0.321118699896
13.87600 0.319752975340
13.88180 0.318347486181
13.88760 0.316856199479
13.89340 0.315362555012
13.89920 0.313866552780
13.90500 0.312284246047
13.91080 0.310686025381
13.91660 0.309085313023
13.92240 0.307627381974
13.92820 0.306373103264
13.93400 0.305116814711
13.93980 0.303858516314
13.94560 0.302805420922
13.95140 0.301758004829
13.95720 0.300708872640
13.96300 0.299983787682
13.96880 0.299561685022
13.97460 0.299138726537
13.98040 0.298735778078
13.98620 0.298613883193
13.99200 0.298491544907
13.99780 0.298368763220
14.00360 0.297861305282
14.00940 0.297117136929
14.01520 0.296370725877
14.02100 0.295572781107
14.02680 0.294535642804
14.03260 0.293495658038
14.03840 0.292452826809
14.04420 0.288571380026
14.05000 0.283599694202
14.05580 0.278616926389
14.06160 0.273267154770
14.06740 0.266970280910
14.07320 0.260659620253
14.07900 0.254335172799
14.08480 0.244592505189
14.09060 0.234118946242
14.09640 0.223623012570
14.10220 0.212649139156
14.10800 0.200905697190
14.11380 0.189137380990
14.11960 0.177344190556
14.12540 0.165937421916
14.13120 0.154537129398
14.13700 0.143112878199
14.14280 0.131722822832
14.14860 0.120371301709
14.15440 0.108996070792
14.16020 0.097717460512
14.16600 0.089788110175
14.17180 0.081842237524
14.17760 0.073879842559
14.18340 0.066464207382
14.18920 0.059431224016
14.19500 0.052383689364
14.20080 0.045725699385
14.20660 0.041582166589
14.21240 0.037430073601
14.21820 0.033269420422
14.22400 0.029696703893
14.22980 0.026385338930
14.23560 0.023067175294
14.24140 0.020096325703
14.24720 0.018233451973
14.25300 0.016366758277
14.25880 0.014496244615
14.26460 0.013012855034
14.27040 0.011628524580
14.27620 0.010241370967
14.28200 0.009053716762
14.28780 0.008248447684
14.29360 0.007441538360
14.29940 0.006632988791
14.30520 0.006034102688
14.31100 0.005458406314
14.31680 0.004881542949
14.32260 0.004401752013
14.32840 0.004042021844
14.33420 0.003681563415
14.34000 0.003320376726
14.34580 0.003068027513
14.35160 0.002815168511
14.35740 0.002561799723
14.36320 0.002353167322
14.36900 0.002180914146
14.37480 0.002008314219
14.38060 0.001840827392
14.38640 0.001720370244
14.39220 0.001599670959
14.39800 0.001478729536
14.40380 0.001377102003
14.40960 0.001285573748
14.41540 0.001193862285
14.42120 0.001107268955
14.42700 0.001040844657
14.43280 0.000974287590
14.43860 0.000907597754
14.44440 0.000849157101
14.45020 0.000793269714
14.45600 0.000737271223
14.46180 0.000685254854
14.46760 0.000642240335
14.47340 0.000599140496
14.47920 0.000555955337
14.48500 0.000517711661
14.49080 0.000480197525
14.49660 0.000442609425
14.50240 0.000409049418
14.50820 0.000381277538
14.51400 0.000353503622
14.51980 0.000325727668
14.52560 0.000300980109
14.53140 0.000276338969
14.53720 0.000251696022
14.54300 0.000231776695
14.54880 0.000216266469
14.55460 0.000200755104
14.56040 0.000185265586
14.56620 0.000170085218
14.57200 0.000154903737
14.57780 0.000139721143
14.58360 0.000125843160
14.58940 0.000112762132
14.59520 0.000099680145
14.60100 0.000086610331
14.60680 0.000073602590
14.61260 0.000060593896
14.61840 0.000047584249
14.62420 0.000043996380
14.63000 0.000043997991
14.63580 0.000043999602
14.64160 0.000044001214
14.64740 0.000044002825
14.65320 0.000044004436
14.65900 0.000044006047
14.66480 0.000044007658
14.67060 0.000044009270
14.67640 0.000044010881
14.68220 0.000044012492
14.68800 0.000044014103
14.69380 0.000044015715
14.69960 0.000044017326
14.70540 0.000044018937
14.71120 0.000044020548
14.71700 0.000044022160
14.72280 0.000044023771
14.72860 0.000044025382
14.73440 0.000044026993
14.74020 0.000044028605
14.74600 0.000044030216
14.75180 0.000044031827
14.75760 0.000044033438
14.76340 0.000044035050
14.76920 0.000044036661
14.77500 0.000044038272
14.78080 0.000044039883
14.78660 0.000044041495
14.79240 0.000044043106
14.79820 0.000044044717
14.80400 0.000044046328
14.80980 0.000044047939
14.81560 0.000044049551
14.82140 0.000044051162
14.82720 0.000044052773
14.83300 0.000044054384
14.83880 0.000044055996
14.84460 0.000044057607
14.85040 0.000044059218
14.85620 0.000044060829
14.86200 0.000044062441
14.86780 0.000044064052
14.87360 0.000044065663
14.87940 0.000044067274
14.88520 0.000044068886
14.89100 0.000044070497
14.89680 0.000044072108
14.90260 0.000044073719
14.90840 0.000044075331
14.91420 0.000044076942
14.92000 0.000044078553
14.92580 0.000044080164
14.93160 0.000044081776
14.93740 0.000044083387
14.94320 0.000044084998
14.94900 0.000044086609
14.95480 0.000044088221
14.96060 0.000044089832
14.96640 0.000044091443
14.97220 0.000044093054
14.97800 0.000044094665
14.98380 0.000044096277
14.98960 0.000044097888
14.99540 0.000044099499
15.00120 0.000044097944
15.00700 0.000044084248
15.01280 0.000044070552
15.01860 0.000044056857
15.02440 0.000044043161
15.03020 0.000044029466
15.03600 0.000044015770
15.04180 0.000044002075
15.04760 0.000043988379
15.05340 0.000043974684
15.05920 0.000043960988
15.06500 0.000043947292
15.07080 0.000043933597
15.07660 0.000043919901
15.08240 0.000043906206
15.08820 0.000043892510
15.09400 0.000043878815
15.09980 0.000043865119
15.10560 0.000043851424
15.11140 0.000043837728
15.11720 0.000043824033
15.12300 0.000043810337
15.12880 0.000043796641
15.13460 0.000043782946
15.14040 0.000043769250
15.14620 0.000043755555
15.15200 0.000043741859
15.15780 0.000043728164
15.16360 0.000043714468
15.16940 0.000043700773
15.17520 0.000043687077
15.18100 0.000043673382
15.18680 0.000043659686
15.19260 0.000043645990
15.19840 0.000043632295
15.20420 0.000043618599
15.21000 0.000043604904
15.21580 0.000043591208
15.22160 0.000043577513
15.22740 0.000043563817
15.23320 0.000043550122
15.23900 0.000043536426
15.24480 0.000043522730
15.25060 0.000043509035
15.25640 0.000043495339
15.26220 0.000043481644
15.26800 0.000043467948
15.27380 0.000043454253
15.27960 0.000043440557
15.28540 0.000043426862
15.29120 0.000043413166
15.29700 0.000043399471
15.30280 0.000043385775
15.30860 0.000043372079
15.31440 0.000043358384
15.32020 0.000043344688
15.32600 0.000043330993
15.33180 0.000043317297
15.33760 0.000043303602
15.34340 0.000043289906
15.34920 0.000043276211
15.35500 0.000043262515
15.36080 0.000043248820
15.36660 0.000043235124
15.37240 0.000043221428
15.37820 0.000043207733
15.38400 0.000043194037
15.38980 0.000043180342
15.39560 0.000043166646
15.40140 0.000043152951
15.40720 0.000043139255
15.41300 0.000043125560
15.41880 0.000043111864
15.42460 0.000043098168
15.43040 0.000043084473
15.43620 0.000043070777
15.44200 0.000043057082
15.44780 0.000043043386
15.45360 0.000043029691
15.45940 0.000043015995
15.46520 0.000043002300
15.47100 0.000042988604
15.47680 0.000042974909
15.48260 0.000042961213
15.48840 0.000042947517
15.49420 0.000042933822
15.50000 0.000042920126
15.50580 0.000042897569
15.51160 0.000042875012
15.51740 0.000042852454
15.52320 0.000042829897
15.52900 0.000042807339
15.53480 0.000042784782
15.54060 0.000042762225
15.54640 0.000042739667
15.55220 0.000042717110
15.55800 0.000042694553
15.56380 0.000042671995
15.56960 0.000042649438
15.57540 0.000042626881
15.58120 0.000042604323
15.58700 0.000042581766
15.59280 0.000042559208
15.59860 0.000042536651
15.60440 0.000042514094
15.61020 0.000042491536
15.61600 0.000042468979
15.62180 0.000042446422
15.62760 0.000042423864
15.63340 0.000042401307
15.63920 0.000042378749
15.64500 0.000042356192
15.65080 0.000042333635
15.65660 0.000042311077
15.66240 0.000042288520
15.66820 0.000042265963
15.67400 0.000042243405
15.67980 0.000042220848
15.68560 0.000042198290
15.69140 0.000042175733
15.69720 0.000042153176
15.70300 0.000042130618
15.70880 0.000042108061
15.71460 0.000042085504
15.72040 0.000042062946
15.72620 0.000042040389
15.73200 0.000042017831
15.73780 0.000041995274
15.74360 0.000041972717
15.74940 0.000041950159
15.75520 0.000041927602
15.76100 0.000041905045
15.76680 0.000041882487
15.77260 0.000041859930
15.77840 0.000041837372
15.78420 0.000041814815
15.79000 0.000041792258
15.79580 0.000041769700
15.80160 0.000041747143
15.80740 0.000041724586
15.81320 0.000041702028
15.81900 0.000041679471
15.82480 0.000041656913
15.83060 0.000041634356
15.83640 0.000041611799
15.84220 0.000041589241
15.84800 0.000041566684
15.85380 0.000041544127
15.85960 0.000041521569
15.86540 0.000041499012
15.87120 0.000041476454
15.87700 0.000041453897
15.88280 0.000041431340
15.88860 0.000041408782
15.89440 0.000041386225
15.90020 0.000041363668
15.90600 0.000041341110
15.91180 0.000041318553
15.91760 0.000041295995
15.92340 0.000041273438
15.92920 0.000041250881
15.93500 0.000041228323
15.94080 0.000041205766
15.94660 0.000041183209
15.95240 0.000041160651
15.95820 0.000041138094
15.96400 0.000041115536
15.96980 0.000041092979
15.97560 0.000041070422
15.98140 0.000041047864
15.98720 0.000041025307
15.99300 0.000041002750
15.99880 0.000040980192
16.00460 0.000040977442
16.01040 0.000040979859
16.01620 0.000040982276
16.02200 0.000040984693
16.02780 0.000040987109
16.03360 0.000040989526
16.03940 0.000040991943
16.04520 0.000040994360
16.05100 0.000040996777
16.05680 0.000040999194
16.06260 0.000041001611
16.06840 0.000041004027
16.07420 0.000041006444
16.08000 0.000041008861
16.08580 0.000041011278
16.09160 0.000041013695
16.09740 0.000041016112
16.10320 0.000041018529
16.10900 0.000041020945
16.11480 0.000041023362
16.12060 0.000041025779
16.12640 0.000041028196
16.13220 0.000041030613
16.13800 0.000041033030
16.14380 0.000041035447
16.14960 0.000041037864
16.15540 0.000041040280
16.16120 0.000041042697
16.16700 0.000041045114
16.17280 0.000041047531
16.17860 0.000041049948
16.18440 0.000041052365
16.19020 0.000041054782
16.19600 0.000041057198
16.20180 0.000041059615
16.20760 0.000041062032
16.21340 0.000041064449
16.21920 0.000041066866
16.22500 0.000041069283
16.23080 0.000041071700
16.23660 0.000041074116
16.24240 0.000041076533
16.24820 0.000041078950
16.25400 0.000041081367
16.25980 0.000041083784
16.26560 0.000041086201
16.27140 0.000041088618
16.27720 0.000041091034
16.28300 0.000041093451
16.28880 0.000041095868
16.29460 0.000041098285
16.30040 0.000041100702
16.30620 0.000041103119
16.31200 0.000041105536
16.31780 0.000041107953
16.32360 0.000041110369
16.32940 0.000041112786
16.33520 0.000041115203
16.34100 0.000041117620
16.34680 0.000041120037
16.35260 0.000041122454
16.35840 0.000041124871
16.36420 0.000041127287
16.37000 0.000041129704
16.37580 0.000041132121
16.38160 0.000041134538
16.38740 0.000041136955
16.39320 0.000041139372
16.39900 0.000041141789
16.40480 0.000041144205
16.41060 0.000041146622
16.41640 0.000041149039
16.42220 0.000041151456
16.42800 0.000041153873
16.43380 0.000041156290
16.43960 0.000041158707
16.44540 0.000041161123
16.45120 0.000041163540
16.45700 0.000041165957
16.46280 0.000041168374
16.46860 0.000041170791
16.47440 0.000041173208
16.48020 0.000041175625
16.48600 0.000041178041
16.49180 0.000041180458
16.49760 0.000041182875
16.50340 0.000041190959
16.50920 0.000041203044
16.51500 0.000041215128
16.52080 0.000041227212
16.52660 0.000041239296
16.53240 0.000041251381
16.53820 0.000041263465
16.54400 0.000041275549
16.54980 0.000041287634
16.55560 0.000041299718
16.56140 0.000041311802
16.56720 0.000041323887
16.57300 0.000041335971
16.57880 0.000041348055
16.58460 0.000041360140
16.59040 0.000041372224
16.59620 0.000041384308
16.60200 0.000041396392
16.60780 0.000041408477
16.61360 0.000041420561
16.61940 0.000041432645
16.62520 0.000041444730
16.63100 0.000041456814
16.63680 0.000041468898
16.64260 0.000041480983
16.64840 0.000041493067
16.65420 0.000041505151
16.66000 0.000041517236
16.66580 0.000041529320
16.67160 0.000041541404
16.67740 0.000041553488
16.68320 0.000041565573
16.68900 0.000041577657
16.69480 0.000041589741
16.70060 0.000041601826
16.70640 0.000041613910
16.71220 0.000041625994
16.71800 0.000041638079
16.72380 0.000041650163
16.72960 0.000041662247
16.73540 0.000041674331
16.74120 0.000041686416
16.74700 0.000041698500
16.75280 0.000041710584
16.75860 0.000041722669
16.76440 0.000041734753
16.77020 0.000041746837
16.77600 0.000041758922
16.78180 0.000041771006
16.78760 0.000041783090
16.79340 0.000041795175
16.79920 0.000041807259
16.80500 0.000041819343
16.81080 0.000041831427
16.81660 0.000041843512
16.82240 0.000041855596
16.82820 0.000041867680
16.83400 0.000041879765
16.83980 0.000041891849
16.84560 0.000041903933
16.85140 0.000041916018
16.85720 0.000041928102
16.86300 0.000041940186
16.86880 0.000041952271
16.87460 0.000041964355
16.88040 0.000041976439
16.88620 0.000041988523
16.89200 0.000042000608
16.89780 0.000042012692
16.90360 0.000042024776
16.90940 0.000042036861
16.91520 0.000042048945
16.92100 0.000042061029
16.92680 0.000042073114
16.93260 0.000042085198
16.93840 0.000042097282
16.94420 0.000042109367
16.95000 0.000042121451
16.95580 0.000042133535
16.96160 0.000042145619
16.96740 0.000042157704
16.97320 0.000042169788
16.97900 0.000042181872
16.98480 0.000042193957
16.99060 0.000042206041
16.99640 0.000042218125
17.00220 0.000042222876
17.00800 0.000042215625
17.01380 0.000042208375
17.01960 0.000042201124
17.02540 0.000042193873
17.03120 0.000042186623
17.03700 0.000042179372
17.04280 0.000042172122
17.04860 0.000042164871
17.05440 0.000042157620
17.06020 0.000042150370
17.06600 0.000042143119
17.07180 0.000042135869
17.07760 0.000042128618
17.08340 0.000042121368
17.08920 0.000042114117
17.09500 0.000042106866
17.10080 0.000042099616
17.10660 0.000042092365
17.11240 0.000042085115
17.11820 0.000042077864
17.12400 0.000042070613
17.12980 0.000042063363
17.13560 0.000042056112
17.14140 0.000042048862
17.14720 0.000042041611
17.15300 0.000042034361
17.15880 0.000042027110
17.16460 0.000042019859
17.17040 0.000042012609
17.17620 0.000042005358
17.18200 0.000041998108
17.18780 0.000041990857
17.19360 0.000041983606
17.19940 0.000041976356
17.20520 0.000041969105
17.21100 0.000041961855
17.21680 0.000041954604
17.22260 0.000041947354
17.22840 0.000041940103
17.23420 0.000041932852
17.24000 0.000041925602
17.24580 0.000041918351
17.25160 0.000041911101
17.25740 0.000041903850
17.26320 0.000041896599
17.26900 0.000041889349
17.27480 0.000041882098
17.28060 0.000041874848
17.28640 0.000041867597
17.29220 0.000041860346
17.29800 0.000041853096
17.30380 0.000041845845
17.30960 0.000041838595
17.31540 0.000041831344
17.32120 0.000041824094
17.32700 0.000041816843
17.33280 0.000041809592
17.33860 0.000041802342
17.34440 0.000041795091
17.35020 0.000041787841
17.35600 0.000041780590
17.36180 0.000041773339
17.36760 0.000041766089
17.37340 0.000041758838
17.37920 0.000041751588
17.38500 0.000041744337
17.39080 0.000041737087
17.39660 0.000041729836
17.40240 0.000041722585
17.40820 0.000041715335
17.41400 0.000041708084
17.41980 0.000041700834
17.42560 0.000041693583
17.43140 0.000041686332
17.43720 0.000041679082
17.44300 0.000041671831
17.44880 0.000041664581
17.45460 0.000041657330
17.46040 0.000041650080
17.46620 0.000041642829
17.47200 0.000041635578
17.47780 0.000041628328
17.48360 0.000041621077
17.48940 0.000041613827
17.49520 0.000041606576
17.50100 0.000041597659
17.50680 0.000041580741
17.51260 0.000041563823
17.51840 0.000041546905
17.52420 0.000041529987
17.53000 0.000041513068
17.53580 0.000041496150
17.54160 0.000041479232
17.54740 0.000041462314
17.55320 0.000041445396
17.55900 0.000041428478
17.56480 0.000041411560
17.57060 0.000041394642
17.57640 0.000041377724
17.58220 0.000041360806
17.58800 0.000041343888
17.59380 0.000041326970
17.59960 0.000041310052
17.60540 0.000041293134
17.61120 0.000041276216
17.61700 0.000041259298
17.62280 0.000041242380
17.62860 0.000041225462
17.63440 0.000041208544
17.64020 0.000041191626
17.64600 0.000041174708
17.65180 0.000041157790
17.65760 0.000041140872
17.66340 0.000041123954
17.66920 0.000041107036
17.67500 0.000041090118
17.68080 0.000041073200
17.68660 0.000041056282
17.69240 0.000041039364
17.69820 0.000041022446
17.70400 0.000041005528
17.70980 0.000040988610
17.71560 0.000040971692
17.72140 0.000040954773
17.72720 0.000040937855
17.73300 0.000040920937
17.73880 0.000040904019
17.74460 0.000040887101
17.75040 0.000040870183
17.75620 0.000040853265
17.76200 0.000040836347
17.76780 0.000040819429
17.77360 0.000040802511
17.77940 0.000040785593
17.78520 0.000040768675
17.79100 0.000040751757
17.79680 0.000040734839
17.80260 0.000040717921
17.80840 0.000040701003
17.81420 0.000040684085
17.82000 0.000040667167
17.82580 0.000040650249
17.83160 0.000040633331
17.83740 0.000040616413
17.84320 0.000040599495
17.84900 0.000040582577
17.85480 0.000040565659
17.86060 0.000040548741
17.86640 0.000040531823
17.87220 0.000040514905
17.87800 0.000040497987
17.88380 0.000040481069
17.88960 0.000040464151
17.89540 0.000040447233
17.90120 0.000040430315
17.90700 0.000040413397
17.91280 0.000040396478
17.91860 0.000040379560
17.92440 0.000040362642
17.93020 0.000040345724
17.93600 0.000040328806
17.94180 0.000040311888
17.94760 0.000040294970
17.95340 0.000040278052
17.95920 0.000040261134
17.96500 0.000040244216
17.97080 0.000040227298
17.97660 0.000040210380
17.98240 0.000040193462
17.98820 0.000040176544
17.99400 0.000040159626
17.99980 0.000040142708
18.00560 0.000040140569
18.01140 0.000040138958
18.01720 0.000040137346
18.02300 0.000040135735
18.02880 0.000040134124
18.03460 0.000040132513
18.04040 0.000040130902
18.04620 0.000040129290
18.05200 0.000040127679
18.05780 0.000040126068
18.06360 0.000040124457
18.06940 0.000040122845
18.07520 0.000040121234
18.08100 0.000040119623
18.08680 0.000040118012
18.09260 0.000040116400
18.09840 0.000040114789
18.10420 0.000040113178
18.11000 0.000040111567
18.11580 0.000040109955
18.12160 0.000040108344
18.12740 0.000040106733
18.13320 0.000040105122
18.13900 0.000040103510
18.14480 0.000040101899
18.15060 0.000040100288
18.15640 0.000040098677
18.16220 0.000040097065
18.16800 0.000040095454
18.17380 0.000040093843
18.17960 0.000040092232
18.18540 0.000040090621
18.19120 0.000040089009
18.19700 0.000040087398
18.20280 0.000040085787
18.20860 0.000040084176
18.21440 0.000040082564
18.22020 0.000040080953
18.22600 0.000040079342
18.23180 0.000040077731
18.23760 0.000040076119
18.24340 0.000040074508
18.24920 0.000040072897
18.25500 0.000040071286
18.26080 0.000040069674
18.26660 0.000040068063
18.27240 0.000040066452
18.27820 0.000040064841
18.28400 0.000040063229
18.28980 0.000040061618
18.29560 0.000040060007
18.30140 0.000040058396
18.30720 0.000040056784
18.31300 0.000040055173
18.31880 0.000040053562
18.32460 0.000040051951
18.33040 0.000040050339
18.33620 0.000040048728
18.34200 0.000040047117
18.34780 0.000040045506
18.35360 0.000040043895
18.35940 0.000040042283
18.36520 0.000040040672
18.37100 0.000040039061
18.37680 0.000040037450
18.38260 0.000040035838
18.38840 0.000040034227
18.39420 0.000040032616
18.40000 0.000040031005
18.40580 0.000040029393
18.41160 0.000040027782
18.41740 0.000040026171
18.42320 0.000040024560
18.42900 0.000040022948
18.43480 0.000040021337
18.44060 0.000040019726
18.44640 0.000040018115
18.45220 0.000040016503
18.45800 0.000040014892
18.46380 0.000040013281
18.46960 0.000040011670
18.47540 0.000040010058
18.48120 0.000040008447
18.48700 0.000040006836
18.49280 0.000040005225
18.49860 0.000040003613
18.50440 0.000039979389
18.51020 0.000039947970
18.51600 0.000039916551
18.52180 0.000039885132
18.52760 0.000039853713
18.53340 0.000039822293
18.53920 0.000039790874
18.54500 0.000039759455
18.55080 0.000039728036
18.55660 0.000039696617
18.56240 0.000039665197
18.56820 0.000039633778
18.57400 0.000039602359
18.57980 0.000039570940
18.58560 0.000039539521
18.59140 0.000039508101
18.59720 0.000039476682
18.60300 0.000039445263
18.60880 0.000039413844
18.61460 0.000039382425
18.62040 0.000039351005
18.62620 0.000039319586
18.63200 0.000039288167
18.63780 0.000039256748
18.64360 0.000039225329
18.64940 0.000039193909
18.65520 0.000039162490
18.66100 0.000039131071
18.66680 0.000039099652
18.67260 0.000039068233
18.67840 0.000039036813
18.68420 0.000039005394
18.69000 0.000038973975
18.69580 0.000038942556
18.70160 0.000038911137
18.70740 0.000038879717
18.71320 0.000038848298
18.71900 0.000038816879
18.72480 0.000038785460
18.73060 0.000038754041
18.73640 0.000038722621
18.74220 0.000038691202
18.74800 0.000038659783
18.75380 0.000038628364
18.75960 0.000038596945
18.76540 0.000038565525
18.77120 0.000038534106
18.77700 0.000038502687
18.78280 0.000038471268
18.78860 0.000038439849
18.79440 0.000038408429
18.80020 0.000038377010
18.80600 0.000038345591
18.81180 0.000038314172
18.81760 0.000038282753
18.82340 0.000038251333
18.82920 0.000038219914
18.83500 0.000038188495
18.84080 0.000038157076
18.84660 0.000038125657
18.85240 0.000038094237
18.85820 0.000038062818
18.86400 0.000038031399
18.86980 0.000037999980
18.87560 0.000037968561
18.88140 0.000037937141
18.88720 0.000037905722
18.89300 0.000037874303
18.89880 0.000037842884
18.90460 0.000037811465
18.91040 0.000037780045
18.91620 0.000037748626
18.92200 0.000037717207
18.92780 0.000037685788
18.93360 0.000037654369
18.93940 0.000037622949
18.94520 0.000037591530
18.95100 0.000037560111
18.95680 0.000037528692
18.96260 0.000037497273
18.96840 0.000037465853
18.97420 0.000037434434
18.98000 0.000037403015
18.98580 0.000037371596
18.99160 0.000037340177
18.99740 0.000037308757
19.00320 0.000037288450
19.00900 0.000037277171
19.01480 0.000037265893
19.02060 0.000037254614
19.02640 0.000037243335
19.03220 0.000037232057
19.03800 0.000037220778
19.04380 0.000037209499
19.04960 0.000037198221
19.05540 0.000037186942
19.06120 0.000037175663
19.06700 0.000037164385
19.07280 0.000037153106
19.07860 0.000037141827
19.08440 0.000037130549
19.09020 0.000037119270
19.09600 0.000037107991
19.10180 0.000037096713
19.10760 0.000037085434
19.11340 0.000037074155
19.11920 0.000037062876
19.12500 0.000037051598
19.13080 0.000037040319
19.13660 0.000037029040
19.14240 0.000037017762
19.14820 0.000037006483
19.15400 0.000036995204
19.15980 0.000036983926
19.16560 0.000036972647
19.17140 0.000036961368
19.17720 0.000036950090
19.18300 0.000036938811
19.18880 0.000036927532
19.19460 0.000036916254
19.20040 0.000036904975
19.20620 0.000036893696
19.21200 0.000036882417
19.21780 0.000036871139
19.22360 0.000036859860
19.22940 0.000036848581
19.23520 0.000036837303
19.24100 0.000036826024
19.24680 0.000036814745
19.25260 0.000036803467
19.25840 0.000036792188
19.26420 0.000036780909
19.27000 0.000036769631
19.27580 0.000036758352
19.28160 0.000036747073
19.28740 0.000036735795
19.29320 0.000036724516
19.29900 0.000036713237
19.30480 0.000036701958
19.31060 0.000036690680
19.31640 0.000036679401
19.32220 0.000036668122
19.32800 0.000036656844
19.33380 0.000036645565
19.33960 0.000036634286
19.34540 0.000036623008
19.35120 0.000036611729
19.35700 0.000036600450
19.36280 0.000036589172
19.36860 0.000036577893
19.37440 0.000036566614
19.38020 0.000036555336
19.38600 0.000036544057
19.39180 0.000036532778
19.39760 0.000036521499
19.40340 0.000036510221
19.40920 0.000036498942
19.41500 0.000036487663
19.42080 0.000036476385
19.42660 0.000036465106
19.43240 0.000036453827
19.43820 0.000036442549
19.44400 0.000036431270
19.44980 0.000036419991
19.45560 0.000036408713
19.46140 0.000036397434
19.46720 0.000036386155
19.47300 0.000036374877
19.47880 0.000036363598
19.48460 0.000036352319
19.49040 0.000036341040
19.49620 0.000036329762
19.50200 0.000036325428
19.50780 0.000036334290
19.51360 0.000036343152
19.51940 0.000036352014
19.52520 0.000036360875
19.53100 0.000036369737
19.53680 0.000036378599
19.54260 0.000036387461
19.54840 0.000036396323
19.55420 0.000036405185
19.56000 0.000036414046
19.56580 0.000036422908
19.57160 0.000036431770
19.57740 0.000036440632
19.58320 0.000036449494
19.58900 0.000036458355
19.59480 0.000036467217
19.60060 0.000036476079
19.60640 0.000036484941
19.61220 0.000036493803
19.61800 0.000036502665
19.62380 0.000036511526
19.62960 0.000036520388
19.63540 0.000036529250
19.64120 0.000036538112
19.64700 0.000036546974
19.65280 0.000036555836
19.65860 0.000036564697
19.66440 0.000036573559
19.67020 0.000036582421
19.67600 0.000036591283
19.68180 0.000036600145
19.68760 0.000036609007
19.69340 0.000036617868
19.69920 0.000036626730
19.70500 0.000036635592
19.71080 0.000036644454
19.71660 0.000036653316
19.72240 0.000036662177
19.72820 0.000036671039
19.73400 0.000036679901
19.73980 0.000036688763
19.74560 0.000036697625
19.75140 0.000036706487
19.75720 0.000036715348
19.76300 0.000036724210
19.76880 0.000036733072
19.77460 0.000036741934
19.78040 0.000036750796
19.78620 0.000036759658
19.79200 0.000036768519
19.79780 0.000036777381
19.80360 0.000036786243
19.80940 0.000036795105
19.81520 0.000036803967
19.82100 0.000036812829
19.82680 0.000036821690
19.83260 0.000036830552
19.83840 0.000036839414
19.84420 0.000036848276
19.85000 0.000036857138
19.85580 0.000036865999
19.86160 0.000036874861
19.86740 0.000036883723
19.87320 0.000036892585
19.87900 0.000036901447
19.88480 0.000036910309
19.89060 0.000036919170
19.89640 0.000036928032
19.90220 0.000036936894
19.90800 0.000036945756
19.91380 0.000036954618
19.91960 0.000036963480
19.92540 0.000036972341
19.93120 0.000036981203
19.93700 0.000036990065
19.94280 0.000036998927
19.94860 0.000037007789
19.95440 0.000037016650
19.96020 0.000037025512
19.96600 0.000037034374
19.97180 0.000037043236
19.97760 0.000037052098
19.98340 0.000037060960
19.98920 0.000037069821
19.99500 0.000037078683
20.00080 0.000037087434
20.00660 0.000037095490
20.01240 0.000037103546
20.01820 0.000037111603
20.02400 0.000037119659
20.02980 0.000037127715
20.03560 0.000037135771
20.04140 0.000037143827
20.04720 0.000037151884
20.05300 0.000037159940
20.05880 0.000037167996
20.06460 0.000037176052
20.07040 0.000037184108
20.07620 0.000037192165
20.08200 0.000037200221
20.08780 0.000037208277
20.09360 0.000037216333
20.09940 0.000037224389
20.10520 0.000037232446
20.11100 0.000037240502
20.11680 0.000037248558
20.12260 0.000037256614
20.12840 0.000037264670
20.13420 0.000037272727
20.14000 0.000037280783
20.14580 0.000037288839
20.15160 0.000037296895
20.15740 0.000037304952
20.16320 0.000037313008
20.16900 0.000037321064
20.17480 0.000037329120
20.18060 0.000037337176
20.18640 0.000037345233
20.19220 0.000037353289
20.19800 0.000037361345
20.20380 0.000037369401
20.20960 0.000037377457
20.21540 0.000037385514
20.22120 0.000037393570
20.22700 0.000037401626
20.23280 0.000037409682
20.23860 0.000037417738
20.24440 0.000037425795
20.25020 0.000037433851
20.25600 0.000037441907
20.26180 0.000037449963
20.26760 0.000037458019
20.27340 0.000037466076
20.27920 0.000037474132
20.28500 0.000037482188
20.29080 0.000037490244
20.29660 0.000037498300
20.30240 0.000037506357
20.30820 0.000037514413
20.31400 0.000037522469
20.31980 0.000037530525
20.32560 0.000037538581
20.33140 0.000037546638
20.33720 0.000037554694
20.34300 0.000037562750
20.34880 0.000037570806
20.35460 0.000037578862
20.36040 0.000037586919
20.36620 0.000037594975
20.37200 0.000037603031
20.37780 0.000037611087
20.38360 0.000037619144
20.38940 0.000037627200
20.39520 0.000037635256
20.40100 0.000037643312
20.40680 0.000037651368
20.41260 0.000037659425
20.41840 0.000037667481
20.42420 0.000037675537
20.43000 0.000037683593
20.43580 0.000037691649
20.44160 0.000037699706
20.44740 0.000037707762
20.45320 0.000037715818
20.45900 0.000037723874
20.46480 0.000037731930
20.47060 0.000037739987
20.47640 0.000037748043
20.48220 0.000037756099
20.48800 0.000037764155
20.49380 0.000037772211
20.49960 0.000037780268
20.50540 0.000037756821
20.51120 0.000037731041
20.51700 0.000037705262
20.52280 0.000037679482
20.52860 0.000037653702
20.53440 0.000037627922
20.54020 0.000037602142
20.54600 0.000037576362
20.55180 0.000037550582
20.55760 0.000037524803
20.56340 0.000037499023
20.56920 0.000037473243
20.57500 0.000037447463
20.58080 0.000037421683
20.58660 0.000037395903
20.59240 0.000037370123
20.59820 0.000037344344
20.60400 0.000037318564
20.60980 0.000037292784
20.61560 0.000037267004
20.62140 0.000037241224
20.62720 0.000037215444
20.63300 0.000037189664
20.63880 0.000037163885
20.64460 0.000037138105
20.65040 0.000037112325
20.65620 0.000037086545
20.66200 0.000037060765
20.66780 0.000037034985
20.67360 0.000037009205
20.67940 0.000036983426
20.68520 0.000036957646
20.69100 0.000036931866
20.69680 0.000036906086
20.70260 0.000036880306
20.70840 0.000036854526
20.71420 0.000036828746
20.72000 0.000036802967
20.72580 0.000036777187
20.73160 0.000036751407
20.73740 0.000036725627
20.74320 0.000036699847
20.74900 0.000036674067
20.75480 0.000036648287
20.76060 0.000036622508
20.76640 0.000036596728
20.77220 0.000036570948
20.77800 0.000036545168
20.78380 0.000036519388
20.78960 0.000036493608
20.79540 0.000036467828
20.80120 0.000036442049
20.80700 0.000036416269
20.81280 0.000036390489
20.81860 0.000036364709
20.82440 0.000036338929
20.83020 0.000036313149
20.83600 0.000036287369
20.84180 0.000036261590
20.84760 0.000036235810
20.85340 0.000036210030
20.85920 0.000036184250
20.86500 0.000036158470
20.87080 0.000036132690
20.87660 0.000036106910
20.88240 0.000036081131
20.88820 0.000036055351
20.89400 0.000036029571
20.89980 0.000036003791
20.90560 0.000035978011
20.91140 0.000035952231
20.91720 0.000035926452
20.92300 0.000035900672
20.92880 0.000035874892
20.93460 0.000035849112
20.94040 0.000035823332
20.94620 0.000035797552
20.95200 0.000035771772
20.95780 0.000035745993
20.96360 0.000035720213
20.96940 0.000035694433
20.97520 0.000035668653
20.98100 0.000035642873
20.98680 0.000035617093
20.99260 0.000035591313
20.99840 0.000035565534
21.00420 0.000035575340
21.01000 0.000035598703
21.01580 0.000035622066
21.02160 0.000035645429
21.02740 0.000035668792
21.03320 0.000035692155
21.03900 0.000035715518
21.04480 0.000035738881
21.05060 0.000035762244
21.05640 0.000035785607
21.06220 0.000035808970
21.06800 0.000035832333
21.07380 0.000035855696
21.07960 0.000035879059
21.08540 0.000035902422
21.09120 0.000035925785
21.09700 0.000035949148
21.10280 0.000035972511
21.10860 0.000035995874
21.11440 0.000036019237
21.12020 0.000036042600
21.12600 0.000036065963
21.13180 0.000036089326
21.13760 0.000036112689
21.14340 0.000036136052
21.14920 0.000036159415
21.15500 0.000036182778
21.16080 0.000036206141
21.16660 0.000036229504
21.17240 0.000036252867
21.17820 0.000036276230
21.18400 0.000036299593
21.18980 0.000036322956
21.19560 0.000036346319
21.20140 0.000036369682
21.20720 0.000036393045
21.21300 0.000036416408
21.21880 0.000036439771
21.22460 0.000036463134
21.23040 0.000036486497
21.23620 0.000036509860
21.24200 0.000036533223
21.24780 0.000036556586
21.25360 0.000036579949
21.25940 0.000036603312
21.26520 0.000036626675
21.27100 0.000036650038
21.27680 0.000036673401
21.28260 0.000036696764
21.28840 0.000036720127
21.29420 0.000036743490
21.30000 0.000036766853
21.30580 0.000036790216
21.31160 0.000036813579
21.31740 0.000036836942
21.32320 0.000036860305
21.32900 0.000036883668
21.33480 0.000036907031
21.34060 0.000036930394
21.34640 0.000036953757
21.35220 0.000036977120
21.35800 0.000037000483
21.36380 0.000037023846
21.36960 0.000037047209
21.37540 0.000037070572
21.38120 0.000037093935
21.38700 0.000037117297
21.39280 0.000037140660
21.39860 0.000037164023
21.40440 0.000037187386
21.41020 0.000037210749
21.41600 0.000037234112
21.42180 0.000037257475
21.42760 0.000037280838
21.43340 0.000037304201
21.43920 0.000037327564
21.44500 0.000037350927
21.45080 0.000037374290
21.45660 0.000037397653
21.46240 0.000037421016
21.46820 0.000037444379
21.47400 0.000037467742
21.47980 0.000037491105
21.48560 0.000037514468
21.49140 0.000037537831
21.49720 0.000037561194
21.50300 0.000037572056
21.50880 0.000037571251
21.51460 0.000037570445
21.52040 0.000037569640
21.52620 0.000037568834
21.53200 0.000037568028
21.53780 0.000037567223
21.54360 0.000037566417
21.54940 0.000037565611
21.55520 0.000037564806
21.56100 0.000037564000
21.56680 0.000037563195
21.57260 0.000037562389
21.57840 0.000037561583
21.58420 0.000037560778
21.59000 0.000037559972
21.59580 0.000037559166
21.60160 0.000037558361
21.60740 0.000037557555
21.61320 0.000037556750
21.61900 0.000037555944
21.62480 0.000037555138
21.63060 0.000037554333
21.63640 0.000037553527
21.64220 0.000037552721
21.64800 0.000037551916
21.65380 0.000037551110
21.65960 0.000037550305
21.66540 0.000037549499
21.67120 0.000037548693
21.67700 0.000037547888
21.68280 0.000037547082
21.68860 0.000037546277
21.69440 0.000037545471
21.70020 0.000037544665
21.70600 0.000037543860
21.71180 0.000037543054
21.71760 0.000037542248
21.72340 0.000037541443
21.72920 0.000037540637
21.73500 0.000037539832
21.74080 0.000037539026
21.74660 0.000037538220
21.75240 0.000037537415
21.75820 0.000037536609
21.76400 0.000037535803
21.76980 0.000037534998
21.77560 0.000037534192
21.78140 0.000037533387
21.78720 0.000037532581
21.79300 0.000037531775
21.79880 0.000037530970
21.80460 0.000037530164
21.81040 0.000037529358
21.81620 0.000037528553
21.82200 0.000037527747
21.82780 0.000037526942
21.83360 0.000037526136
21.83940 0.000037525330
21.84520 0.000037524525
21.85100 0.000037523719
21.85680 0.000037522914
21.86260 0.000037522108
21.86840 0.000037521302
21.87420 0.000037520497
21.88000 0.000037519691
21.88580 0.000037518885
21.89160 0.000037518080
21.89740 0.000037517274
21.90320 0.000037516469
21.90900 0.000037515663
21.91480 0.000037514857
21.92060 0.000037514052
21.92640 0.000037513246
21.93220 0.000037512440
21.93800 0.000037511635
21.94380 0.000037510829
21.94960 0.000037510024
21.95540 0.000037509218
21.96120 0.000037508412
21.96700 0.000037507607
21.97280 0.000037506801
21.97860 0.000037505995
21.98440 0.000037505190
21.99020 0.000037504384
21.99600 0.000037503579
22.00180 0.000037499773
22.00760 0.000037489300
22.01340 0.000037478827
22.01920 0.000037468354
22.02500 0.000037457881
22.03080 0.000037447407
22.03660 0.000037436934
22.04240 0.000037426461
22.04820 0.000037415988
22.05400 0.000037405515
22.05980 0.000037395042
22.06560 0.000037384569
22.07140 0.000037374096
22.07720 0.000037363623
22.08300 0.000037353150
22.08880 0.000037342677
22.09460 0.000037332204
22.10040 0.000037321731
22.10620 0.000037311258
22.11200 0.000037300785
22.11780 0.000037290311
22.12360 0.000037279838
22.12940 0.000037269365
22.13520 0.000037258892
22.14100 0.000037248419
22.14680 0.000037237946
22.15260 0.000037227473
22.15840 0.000037217000
22.16420 0.000037206527
22.17000 0.000037196054
22.17580 0.000037185581
22.18160 0.000037175108
22.18740 0.000037164635
22.19320 0.000037154162
22.19900 0.000037143689
22.20480 0.000037133215
22.21060 0.000037122742
22.21640 0.000037112269
22.22220 0.000037101796
22.22800 0.000037091323
22.23380 0.000037080850
22.23960 0.000037070377
22.24540 0.000037059904
22.25120 0.000037049431
22.25700 0.000037038958
22.26280 0.000037028485
22.26860 0.000037018012
22.27440 0.000037007539
22.28020 0.000036997066
22.28600 0.000036986593
22.29180 0.000036976119
22.29760 0.000036965646
22.30340 0.000036955173
22.30920 0.000036944700
22.31500 0.000036934227
22.32080 0.000036923754
22.32660 0.000036913281
22.33240 0.000036902808
22.33820 0.000036892335
22.34400 0.000036881862
22.34980 0.000036871389
22.35560 0.000036860916
22.36140 0.000036850443
22.36720 0.000036839970
22.37300 0.000036829497
22.37880 0.000036819023
22.38460 0.000036808550
22.39040 0.000036798077
22.39620 0.000036787604
22.40200 0.000036777131
22.40780 0.000036766658
22.41360 0.000036756185
22.41940 0.000036745712
22.42520 0.000036735239
22.43100 0.000036724766
22.43680 0.000036714293
22.44260 0.000036703820
22.44840 0.000036693347
22.45420 0.000036682874
22.46000 0.000036672401
22.46580 0.000036661927
22.47160 0.000036651454
22.47740 0.000036640981
22.48320 0.000036630508
22.48900 0.000036620035
22.49480 0.000036609562
22.50060 0.000036599089
22.50640 0.000036588616
22.51220 0.000036578143
22.51800 0.000036567670
22.52380 0.000036557197
22.52960 0.000036546724
22.53540 0.000036536251
22.54120 0.000036525778
22.54700 0.000036515305
22.55280 0.000036504831
22.55860 0.000036494358
22.56440 0.000036483885
22.57020 0.000036473412
22.57600 0.000036462939
22.58180 0.000036452466
22.58760 0.000036441993
22.59340 0.000036431520
22.59920 0.000036421047
22.60500 0.000036410574
22.61080 0.000036400101
22.61660 0.000036389628
22.62240 0.000036379155
22.62820 0.000036368682
22.63400 0.000036358209
22.63980 0.000036347735
22.64560 0.000036337262
22.65140 0.000036326789
22.65720 0.000036316316
22.66300 0.000036305843
22.66880 0.000036295370
22.67460 0.000036284897
22.68040 0.000036274424
22.68620 0.000036263951
22.69200 0.000036253478
22.69780 0.000036243005
22.70360 0.000036232532
22.70940 0.000036222059
22.71520 0.000036211586
22.72100 0.000036201113
22.72680 0.000036190639
22.73260 0.000036180166
22.73840 0.000036169693
22.74420 0.000036159220
22.75000 0.000036148747
22.75580 0.000036138274
22.76160 0.000036127801
22.76740 0.000036117328
22.77320 0.000036106855
22.77900 0.000036096382
22.78480 0.000036085909
22.79060 0.000036075436
22.79640 0.000036064963
22.80220 0.000036054490
22.80800 0.000036044017
22.81380 0.000036033543
22.81960 0.000036023070
22.82540 0.000036012597
22.83120 0.000036002124
22.83700 0.000035991651
22.84280 0.000035981178
22.84860 0.000035970705
22.85440 0.000035960232
22.86020 0.000035949759
22.86600 0.000035939286
22.87180 0.000035928813
22.87760 0.000035918340
22.88340 0.000035907867
22.88920 0.000035897394
22.89500 0.000035886921
22.90080 0.000035876447
22.90660 0.000035865974
22.91240 0.000035855501
22.91820 0.000035845028
22.92400 0.000035834555
22.92980 0.000035824082
22.93560 0.000035813609
22.94140 0.000035803136
22.94720 0.000035792663
22.95300 0.000035782190
22.95880 0.000035771717
22.96460 0.000035761244
22.97040 0.000035750771
22.97620 0.000035740298
22.98200 0.000035729825
22.98780 0.000035719351
22.99360 0.000035708878
22.99940 0.000035698405
23.00520 0.000035679265
23.01100 0.000035659124
23.01680 0.000035638984
23.02260 0.000035618843
23.02840 0.000035598703
23.03420 0.000035578562
23.04000 0.000035558422
23.04580 0.000035538281
23.05160 0.000035518141
23.05740 0.000035498000
23.06320 0.000035477860
23.06900 0.000035457719
23.07480 0.000035437579
23.08060 0.000035417438
23.08640 0.000035397298
23.09220 0.000035377157
23.09800 0.000035357017
23.10380 0.000035336876
23.10960 0.000035316736
23.11540 0.000035296595
23.12120 0.000035276455
23.12700 0.000035256314
23.13280 0.000035236174
23.13860 0.000035216033
23.14440 0.000035195893
23.15020 0.000035175752
23.15600 0.000035155612
23.16180 0.000035135471
23.16760 0.000035115331
23.17340 0.000035095190
23.17920 0.000035075050
23.18500 0.000035054909
23.19080 0.000035034769
23.19660 0.000035014628
23.20240 0.000034994487
23.20820 0.000034974347
23.21400 0.000034954206
23.21980 0.000034934066
23.22560 0.000034913925
23.23140 0.000034893785
23.23720 0.000034873644
23.24300 0.000034853504
23.24880 0.000034833363
23.25460 0.000034813223
23.26040 0.000034793082
23.26620 0.000034772942
23.27200 0.000034752801
23.27780 0.000034732661
23.28360 0.000034712520
23.28940 0.000034692380
23.29520 0.000034672239
23.30100 0.000034652099
23.30680 0.000034631958
23.31260 0.000034611818
23.31840 0.000034591677
23.32420 0.000034571537
23.33000 0.000034551396
23.33580 0.000034531256
23.34160 0.000034511115
23.34740 0.000034490975
23.35320 0.000034470834
23.35900 0.000034450694
23.36480 0.000034430553
23.37060 0.000034410413
23.37640 0.000034390272
23.38220 0.000034370132
23.38800 0.000034349991
23.39380 0.000034329851
23.39960 0.000034309710
23.40540 0.000034289570
23.41120 0.000034269429
23.41700 0.000034249289
23.42280 0.000034229148
23.42860 0.000034209008
23.43440 0.000034188867
23.44020 0.000034168726
23.44600 0.000034148586
23.45180 0.000034128445
23.45760 0.000034108305
23.46340 0.000034088164
23.46920 0.000034068024
23.47500 0.000034047883
23.48080 0.000034027743
23.48660 0.000034007602
23.49240 0.000033987462
23.49820 0.000033967321
23.50400 0.000033960515
23.50980 0.000033959710
23.51560 0.000033958904
23.52140 0.000033958098
23.52720 0.000033957293
23.53300 0.000033956487
23.53880 0.000033955682
23.54460 0.000033954876
23.55040 0.000033954070
23.55620 0.000033953265
23.56200 0.000033952459
23.56780 0.000033951653
23.57360 0.000033950848
23.57940 0.000033950042
23.58520 0.000033949237
23.59100 0.000033948431
23.59680 0.000033947625
23.60260 0.000033946820
23.60840 0.000033946014
23.61420 0.000033945208
23.62000 0.000033944403
23.62580 0.000033943597
23.63160 0.000033942792
23.63740 0.000033941986
23.64320 0.000033941180
23.64900 0.000033940375
23.65480 0.000033939569
23.66060 0.000033938764
23.66640 0.000033937958
23.67220 0.000033937152
23.67800 0.000033936347
23.68380 0.000033935541
23.68960 0.000033934735
23.69540 0.000033933930
23.70120 0.000033933124
23.70700 0.000033932319
23.71280 0.000033931513
23.71860 0.000033930707
23.72440 0.000033929902
23.73020 0.000033929096
23.73600 0.000033928290
23.74180 0.000033927485
23.74760 0.000033926679
23.75340 0.000033925874
23.75920 0.000033925068
23.76500 0.000033924262
23.77080 0.000033923457
23.77660 0.000033922651
23.78240 0.000033921845
23.78820 0.000033921040
23.79400 0.000033920234
23.79980 0.000033919429
23.80560 0.000033918623
23.81140 0.000033917817
23.81720 0.000033917012
23.82300 0.000033916206
23.82880 0.000033915401
23.83460 0.000033914595
23.84040 0.000033913789
23.84620 0.000033912984
23.85200 0.000033912178
23.85780 0.000033911372
23.86360 0.000033910567
23.86940 0.000033909761
23.87520 0.000033908956
23.88100 0.000033908150
23.88680 0.000033907344
23.89260 0.000033906539
23.89840 0.000033905733
23.90420 0.000033904927
23.91000 0.000033904122
23.91580 0.000033903316
23.92160 0.000033902511
23.92740 0.000033901705
23.93320 0.000033900899
23.93900 0.000033900094
23.94480 0.000033899288
23.95060 0.000033898482
23.95640 0.000033897677
23.96220 0.000033896871
23.96800 0.000033896066
23.97380 0.000033895260
23.97960 0.000033894454
23.98540 0.000033893649
23.99120 0.000033892843
23.99700 0.000033892038
24.00280 0.000033877231
24.00860 0.000033847423
24.01440 0.000033817615
24.02020 0.000033787807
24.02600 0.000033757999
24.03180 0.000033728191
24.03760 0.000033698383
24.04340 0.000033668575
24.04920 0.000033638767
24.05500 0.000033608959
24.06080 0.000033579151
24.06660 0.000033549343
24.07240 0.000033519535
24.07820 0.000033489727
24.08400 0.000033459919
24.08980 0.000033430111
24.09560 0.000033400303
24.10140 0.000033370495
24.10720 0.000033340688
24.11300 0.000033310880
24.11880 0.000033281072
24.12460 0.000033251264
24.13040 0.000033221456
24.13620 0.000033191648
24.14200 0.000033161840
24.14780 0.000033132032
24.15360 0.000033102224
24.15940 0.000033072416
24.16520 0.000033042608
24.17100 0.000033012800
24.17680 0.000032982992
24.18260 0.000032953184
24.18840 0.000032923376
24.19420 0.000032893568
24.20000 0.000032863760
24.20580 0.000032833952
24.21160 0.000032804144
24.21740 0.000032774336
24.22320 0.000032744528
24.22900 0.000032714720
24.23480 0.000032684912
24.24060 0.000032655104
24.24640 0.000032625297
24.25220 0.000032595489
24.25800 0.000032565681
24.26380 0.000032535873
24.26960 0.000032506065
24.27540 0.000032476257
24.28120 0.000032446449
24.28700 0.000032416641
24.29280 0.000032386833
24.29860 0.000032357025
24.30440 0.000032327217
24.31020 0.000032297409
24.31600 0.000032267601
24.32180 0.000032237793
24.32760 0.000032207985
24.33340 0.000032178177
24.33920 0.000032148369
24.34500 0.000032118561
24.35080 0.000032088753
24.35660 0.000032058945
24.36240 0.000032029137
24.36820 0.000031999329
24.37400 0.000031969521
24.37980 0.000031939713
24.38560 0.000031909906
24.39140 0.000031880098
24.39720 0.000031850290
24.40300 0.000031820482
24.40880 0.000031790674
24.41460 0.000031760866
24.42040 0.000031731058
24.42620 0.000031701250
24.43200 0.000031671442
24.43780 0.000031641634
24.44360 0.000031611826
24.44940 0.000031582018
24.45520 0.000031552210
24.46100 0.000031522402
24.46680 0.000031492594
24.47260 0.000031462786
24.47840 0.000031432978
24.48420 0.000031403170
24.49000 0.000031373362
24.49580 0.000031343554
24.50160 0.000031313969
24.50740 0.000031284966
24.51320 0.000031255964
24.51900 0.000031226962
24.52480 0.000031197959
24.53060 0.000031168957
24.53640 0.000031139955
24.54220 0.000031110952
24.54800 0.000031081950
24.55380 0.000031052948
24.55960 0.000031023945
24.56540 0.000030994943
24.57120 0.000030965941
24.57700 0.000030936938
24.58280 0.000030907936
24.58860 0.000030878934
24.59440 0.000030849931
24.60020 0.000030820929
24.60600 0.000030791927
24.61180 0.000030762924
24.61760 0.000030733922
24.62340 0.000030704920
24.62920 0.000030675917
24.63500 0.000030646915
24.64080 0.000030617912
24.64660 0.000030588910
24.65240 0.000030559908
24.65820 0.000030530905
24.66400 0.000030501903
24.66980 0.000030472901
24.67560 0.000030443898
24.68140 0.000030414896
24.68720 0.000030385894
24.69300 0.000030356891
24.69880 0.000030327889
24.70460 0.000030298887
24.71040 0.000030269884
24.71620 0.000030240882
24.72200 0.000030211880
24.72780 0.000030182877
24.73360 0.000030153875
24.73940 0.000030124873
24.74520 0.000030095870
24.75100 0.000030066868
24.75680 0.000030037866
24.76260 0.000030008863
24.76840 0.000029979861
24.77420 0.000029950859
24.78000 0.000029921856
24.78580 0.000029892854
24.79160 0.000029863852
24.79740 0.000029834849
24.80320 0.000029805847
24.80900 0.000029776845
24.81480 0.000029747842
24.82060 0.000029718840
24.82640 0.000029689838
24.83220 0.000029660835
24.83800 0.000029631833
24.84380 0.000029602831
24.84960 0.000029573828
24.85540 0.000029544826
24.86120 0.000029515824
24.86700 0.000029486821
24.87280 0.000029457819
24.87860 0.000029428817
24.88440 0.000029399814
24.89020 0.000029370812
24.89600 0.000029341810
24.90180 0.000029312807
24.90760 0.000029283805
24.91340 0.000029254803
24.91920 0.000029225800
24.92500 0.000029196798
24.93080 0.000029167796
24.93660 0.000029138793
24.94240 0.000029109791
24.94820 0.000029080789
24.95400 0.000029051786
24.95980 0.000029022784
24.96560 0.000028993782
24.97140 0.000028964779
24.97720 0.000028935777
24.98300 0.000028906775
24.98880 0.000028877772
24.99460 0.000028848770
25.00040 0.000028820101
25.00620 0.000028795932
25.01200 0.000028771764
25.01780 0.000028747595
25.02360 0.000028723426
25.02940 0.000028699258
25.03520 0.000028675089
25.04100 0.000028650921
25.04680 0.000028626752
25.05260 0.000028602583
25.05840 0.000028578415
25.06420 0.000028554246
25.07000 0.000028530078
25.07580 0.000028505909
25.08160 0.000028481740
25.08740 0.000028457572
25.09320 0.000028433403
25.09900 0.000028409234
25.10480 0.000028385066
25.11060 0.000028360897
25.11640 0.000028336729
25.12220 0.000028312560
25.12800 0.000028288391
25.13380 0.000028264223
25.13960 0.000028240054
25.14540 0.000028215886
25.15120 0.000028191717
25.15700 0.000028167548
25.16280 0.000028143380
25.16860 0.000028119211
25.17440 0.000028095042
25.18020 0.000028070874
25.18600 0.000028046705
25.19180 0.000028022537
25.19760 0.000027998368
25.20340 0.000027974199
25.20920 0.000027950031
25.21500 0.000027925862
25.22080 0.000027901694
25.22660 0.000027877525
25.23240 0.000027853356
25.23820 0.000027829188
25.24400 0.000027805019
25.24980 0.000027780850
25.25560 0.000027756682
25.26140 0.000027732513
25.26720 0.000027708345
25.27300 0.000027684176
25.27880 0.000027660007
25.28460 0.000027635839
25.29040 0.000027611670
25.29620 0.000027587502
25.30200 0.000027563333
25.30780 0.000027539164
25.31360 0.000027514996
25.31940 0.000027490827
25.32520 0.000027466658
25.33100 0.000027442490
25.33680 0.000027418321
25.34260 0.000027394153
25.34840 0.000027369984
25.35420 0.000027345815
25.36000 0.000027321647
25.36580 0.000027297478
25.37160 0.000027273310
25.37740 0.000027249141
25.38320 0.000027224972
25.38900 0.000027200804
25.39480 0.000027176635
25.40060 0.000027152466
25.40640 0.000027128298
25.41220 0.000027104129
25.41800 0.000027079961
25.42380 0.000027055792
25.42960 0.000027031623
25.43540 0.000027007455
25.44120 0.000026983286
25.44700 0.000026959118
25.45280 0.000026934949
25.45860 0.000026910780
25.46440 0.000026886612
25.47020 0.000026862443
25.47600 0.000026838274
25.48180 0.000026814106
25.48760 0.000026789937
25.49340 0.000026765769
25.49920 0.000026741600
25.50500 0.000026704930
25.51080 0.000026666261
25.51660 0.000026627591
25.52240 0.000026588921
25.52820 0.000026550251
25.53400 0.000026511581
25.53980 0.000026472912
25.54560 0.000026434242
25.55140 0.000026395572
25.55720 0.000026356902
25.56300 0.000026318233
25.56880 0.000026279563
25.57460 0.000026240893
25.58040 0.000026202223
25.58620 0.000026163553
25.59200 0.000026124884
25.59780 0.000026086214
25.60360 0.000026047544
25.60940 0.000026008874
25.61520 0.000025970205
25.62100 0.000025931535
25.62680 0.000025892865
25.63260 0.000025854195
25.63840 0.000025815525
25.64420 0.000025776856
25.65000 0.000025738186
25.65580 0.000025699516
25.66160 0.000025660846
25.66740 0.000025622176
25.67320 0.000025583507
25.67900 0.000025544837
25.68480 0.000025506167
25.69060 0.000025467497
25.69640 0.000025428828
25.70220 0.000025390158
25.70800 0.000025351488
25.71380 0.000025312818
25.71960 0.000025274148
25.72540 0.000025235479
25.73120 0.000025196809
25.73700 0.000025158139
25.74280 0.000025119469
25.74860 0.000025080799
25.75440 0.000025042130
25.76020 0.000025003460
25.76600 0.000024964790
25.77180 0.000024926120
25.77760 0.000024887451
25.78340 0.000024848781
25.78920 0.000024810111
25.79500 0.000024771441
25.80080 0.000024732771
25.80660 0.000024694102
25.81240 0.000024655432
25.81820 0.000024616762
25.82400 0.000024578092
25.82980 0.000024539423
25.83560 0.000024500753
25.84140 0.000024462083
25.84720 0.000024423413
25.85300 0.000024384743
25.85880 0.000024346074
25.86460 0.000024307404
25.87040 0.000024268734
25.87620 0.000024230064
25.88200 0.000024191394
25.88780 0.000024152725
25.89360 0.000024114055
25.89940 0.000024075385
25.90520 0.000024036715
25.91100 0.000023998046
25.91680 0.000023959376
25.92260 0.000023920706
25.92840 0.000023882036
25.93420 0.000023843366
25.94000 0.000023804697
25.94580 0.000023766027
25.95160 0.000023727357
25.95740 0.000023688687
25.96320 0.000023650017
25.96900 0.000023611348
25.97480 0.000023572678
25.98060 0.000023534008
25.98640 0.000023495338
25.99220 0.000023456669
25.99800 0.000023417999
26.00380 0.000023369828
26.00960 0.000023316657
26.01540 0.000023263486
26.02120 0.000023210315
26.02700 0.000023157144
26.03280 0.000023103973
26.03860 0.000023050803
26.04440 0.000022997632
26.05020 0.000022944461
26.05600 0.000022891290
26.06180 0.000022838119
26.06760 0.000022784948
26.07340 0.000022731777
26.07920 0.000022678606
26.08500 0.000022625435
26.09080 0.000022572264
26.09660 0.000022519093
26.10240 0.000022465922
26.10820 0.000022412751
26.11400 0.000022359580
26.11980 0.000022306409
26.12560 0.000022253238
26.13140 0.000022200067
26.13720 0.000022146896
26.14300 0.000022093725
26.14880 0.000022040554
26.15460 0.000021987383
26.16040 0.000021934213
26.16620 0.000021881042
26.17200 0.000021827871
26.17780 0.000021774700
26.18360 0.000021721529
26.18940 0.000021668358
26.19520 0.000021615187
26.20100 0.000021562016
26.20680 0.000021508845
26.21260 0.000021455674
26.21840 0.000021402503
26.22420 0.000021349332
26.23000 0.000021296161
26.23580 0.000021242990
26.24160 0.000021189819
26.24740 0.000021136648
26.25320 0.000021083477
26.25900 0.000021030306
26.26480 0.000020977135
26.27060 0.000020923964
26.27640 0.000020870793
26.28220 0.000020817623
26.28800 0.000020764452
26.29380 0.000020711281
26.29960 0.000020658110
26.30540 0.000020604939
26.31120 0.000020551768
26.31700 0.000020498597
26.32280 0.000020445426
26.32860 0.000020392255
26.33440 0.000020339084
26.34020 0.000020285913
26.34600 0.000020232742
26.35180 0.000020179571
26.35760 0.000020126400
26.36340 0.000020073229
26.36920 0.000020020058
26.37500 0.000019966887
26.38080 0.000019913716
26.38660 0.000019860545
26.39240 0.000019807374
26.39820 0.000019754203
26.40400 0.000019701033
26.40980 0.000019647862
26.41560 0.000019594691
26.42140 0.000019541520
26.42720 0.000019488349
26.43300 0.000019435178
26.43880 0.000019382007
26.44460 0.000019328836
26.45040 0.000019275665
26.45620 0.000019222494
26.46200 0.000019169323
26.46780 0.000019116152
26.47360 0.000019062981
26.47940 0.000019009810
26.48520 0.000018956639
26.49100 0.000018903468
26.49680 0.000018850297
26.50260 0.000018803988
26.50840 0.000018766124
26.51420 0.000018728260
26.52000 0.000018690395
26.52580 0.000018652531
26.53160 0.000018614667
26.53740 0.000018576803
26.54320 0.000018538939
26.54900 0.000018501075
26.55480 0.000018463211
26.56060 0.000018425346
26.56640 0.000018387482
26.57220 0.000018349618
26.57800 0.000018311754
26.58380 0.000018273890
26.58960 0.000018236026
26.59540 0.000018198161
26.60120 0.000018160297
26.60700 0.000018122433
26.61280 0.000018084569
26.61860 0.000018046705
26.62440 0.000018008841
26.63020 0.000017970976
26.63600 0.000017933112
26.64180 0.000017895248
26.64760 0.000017857384
26.65340 0.000017819520
26.65920 0.000017781656
26.66500 0.000017743791
26.67080 0.000017705927
26.67660 0.000017668063
26.68240 0.000017630199
26.68820 0.000017592335
26.69400 0.000017554471
26.69980 0.000017516606
26.70560 0.000017478742
26.71140 0.000017440878
26.71720 0.000017403014
26.72300 0.000017365150
26.72880 0.000017327286
26.73460 0.000017289421
26.74040 0.000017251557
26.74620 0.000017213693
26.75200 0.000017175829
26.75780 0.000017137965
26.76360 0.000017100101
26.76940 0.000017062236
26.77520 0.000017024372
26.78100 0.000016986508
26.78680 0.000016948644
26.79260 0.000016910780
26.79840 0.000016872916
26.80420 0.000016835051
26.81000 0.000016797187
26.81580 0.000016759323
26.82160 0.000016721459
26.82740 0.000016683595
26.83320 0.000016645731
26.83900 0.000016607867
26.84480 0.000016570002
26.85060 0.000016532138
26.85640 0.000016494274
26.86220 0.000016456410
26.86800 0.000016418546
26.87380 0.000016380682
26.87960 0.000016342817
26.88540 0.000016304953
26.89120 0.000016267089
26.89700 0.000016229225
26.90280 0.000016191361
26.90860 0.000016153497
26.91440 0.000016115632
26.92020 0.000016077768
26.92600 0.000016039904
26.93180 0.000016002040
26.93760 0.000015964176
26.94340 0.000015926312
26.94920 0.000015888447
26.95500 0.000015850583
26.96080 0.000015812719
26.96660 0.000015774855
26.97240 0.000015736991
26.97820 0.000015699127
26.98400 0.000015661262
26.98980 0.000015623398
26.99560 0.000015585534
27.00140 0.000015549809
27.00720 0.000015520807
27.01300 0.000015491804
27.01880 0.000015462802
27.02460 0.000015433800
27.03040 0.000015404797
27.03620 0.000015375795
27.04200 0.000015346793
27.04780 0.000015317790
27.05360 0.000015288788
27.05940 0.000015259786
27.06520 0.000015230783
27.07100 0.000015201781
27.07680 0.000015172779
27.08260 0.000015143776
27.08840 0.000015114774
27.09420 0.000015085772
27.10000 0.000015056769
27.10580 0.000015027767
27.11160 0.000014998765
27.11740 0.000014969762
27.12320 0.000014940760
27.12900 0.000014911758
27.13480 0.000014882755
27.14060 0.000014853753
27.14640 0.000014824751
27.15220 0.000014795748
27.15800 0.000014766746
27.16380 0.000014737744
27.16960 0.000014708741
27.17540 0.000014679739
27.18120 0.000014650737
27.18700 0.000014621734
27.19280 0.000014592732
27.19860 0.000014563730
27.20440 0.000014534727
27.21020 0.000014505725
27.21600 0.000014476722
27.22180 0.000014447720
27.22760 0.000014418718
27.23340 0.000014389715
27.23920 0.000014360713
27.24500 0.000014331711
27.25080 0.000014302708
27.25660 0.000014273706
27.26240 0.000014244704
27.26820 0.000014215701
27.27400 0.000014186699
27.27980 0.000014157697
27.28560 0.000014128694
27.29140 0.000014099692
27.29720 0.000014070690
27.30300 0.000014041687
27.30880 0.000014012685
27.31460 0.000013983683
27.32040 0.000013954680
27.32620 0.000013925678
27.33200 0.000013896676
27.33780 0.000013867673
27.34360 0.000013838671
27.34940 0.000013809669
27.35520 0.000013780666
27.36100 0.000013751664
27.36680 0.000013722662
27.37260 0.000013693659
27.37840 0.000013664657
27.38420 0.000013635655
27.39000 0.000013606652
27.39580 0.000013577650
27.40160 0.000013548648
27.40740 0.000013519645
27.41320 0.000013490643
27.41900 0.000013461641
27.42480 0.000013432638
27.43060 0.000013403636
27.43640 0.000013374634
27.44220 0.000013345631
27.44800 0.000013316629
27.45380 0.000013287627
27.45960 0.000013258624
27.46540 0.000013229622
27.47120 0.000013200620
27.47700 0.000013171617
27.48280 0.000013142615
27.48860 0.000013113613
27.49440 0.000013084610
27.50020 0.000013054802
27.50600 0.000013002437
27.51180 0.000012950072
27.51760 0.000012897706
27.52340 0.000012845341
27.52920 0.000012792976
27.53500 0.000012740610
27.54080 0.000012688245
27.54660 0.000012635880
27.55240 0.000012583514
27.55820 0.000012531149
27.56400 0.000012478784
27.56980 0.000012426418
27.57560 0.000012374053
27.58140 0.000012321688
27.58720 0.000012269322
27.59300 0.000012216957
27.59880 0.000012164592
27.60460 0.000012112226
27.61040 0.000012059861
27.61620 0.000012007496
27.62200 0.000011955130
27.62780 0.000011902765
27.63360 0.000011850400
27.63940 0.000011798034
27.64520 0.000011745669
27.65100 0.000011693304
27.65680 0.000011640938
27.66260 0.000011588573
27.66840 0.000011536208
27.67420 0.000011483842
27.68000 0.000011431477
27.68580 0.000011379112
27.69160 0.000011326746
27.69740 0.000011274381
27.70320 0.000011222016
27.70900 0.000011169650
27.71480 0.000011117285
27.72060 0.000011064920
27.72640 0.000011012554
27.73220 0.000010960189
27.73800 0.000010907824
27.74380 0.000010855458
27.74960 0.000010803093
27.75540 0.000010750728
27.76120 0.000010698362
27.76700 0.000010645997
27.77280 0.000010593632
27.77860 0.000010541266
27.78440 0.000010488901
27.79020 0.000010436536
27.79600 0.000010384170
27.80180 0.000010331805
27.80760 0.000010279440
27.81340 0.000010227074
27.81920 0.000010174709
27.82500 0.000010122344
27.83080 0.000010069978
27.83660 0.000010017613
27.84240 0.000009965248
27.84820 0.000009912882
27.85400 0.000009860517
27.85980 0.000009808152
27.86560 0.000009755786
27.87140 0.000009703421
27.87720 0.000009651056
27.88300 0.000009598690
27.88880 0.000009546325
27.89460 0.000009493960
27.90040 0.000009441594
27.90620 0.000009389229
27.91200 0.000009336864
27.91780 0.000009284498
27.92360 0.000009232133
27.92940 0.000009179768
27.93520 0.000009127402
27.94100 0.000009075037
27.94680 0.000009022672
27.95260 0.000008970306
27.95840 0.000008917941
27.96420 0.000008865576
27.97000 0.000008813210
27.97580 0.000008760845
27.98160 0.000008708480
27.98740 0.000008656114
27.99320 0.000008603749
27.99900 0.000008551384
28.00480 0.000008511019
28.01060 0.000008473155
28.01640 0.000008435291
28.02220 0.000008397427
28.02800 0.000008359563
28.03380 0.000008321699
28.03960 0.000008283834
28.04540 0.000008245970
28.05120 0.000008208106
28.05700 0.000008170242
28.06280 0.000008132378
28.06860 0.000008094514
28.07440 0.000008056649
28.08020 0.000008018785
28.08600 0.000007980921
28.09180 0.000007943057
28.09760 0.000007905193
28.10340 0.000007867329
28.10920 0.000007829464
28.11500 0.000007791600
28.12080 0.000007753736
28.12660 0.000007715872
28.13240 0.000007678008
28.13820 0.000007640144
28.14400 0.000007602279
28.14980 0.000007564415
28.15560 0.000007526551
28.16140 0.000007488687
28.16720 0.000007450823
28.17300 0.000007412959
28.17880 0.000007375094
28.18460 0.000007337230
28.19040 0.000007299366
28.19620 0.000007261502
28.20200 0.000007223638
28.20780 0.000007185774
28.21360 0.000007147910
28.21940 0.000007110045
28.22520 0.000007072181
28.23100 0.000007034317
28.23680 0.000006996453
28.24260 0.000006958589
28.24840 0.000006920725
28.25420 0.000006882860
28.26000 0.000006844996
28.26580 0.000006807132
28.27160 0.000006769268
28.27740 0.000006731404
28.28320 0.000006693540
28.28900 0.000006655675
28.29480 0.000006617811
28.30060 0.000006579947
28.30640 0.000006542083
28.31220 0.000006504219
28.31800 0.000006466355
28.32380 0.000006428490
28.32960 0.000006390626
28.33540 0.000006352762
28.34120 0.000006314898
28.34700 0.000006277034
28.35280 0.000006239170
28.35860 0.000006201305
28.36440 0.000006163441
28.37020 0.000006125577
28.37600 0.000006087713
28.38180 0.000006049849
28.38760 0.000006011985
28.39340 0.000005974120
28.39920 0.000005936256
28.40500 0.000005898392
28.41080 0.000005860528
28.41660 0.000005822664
28.42240 0.000005784800
28.42820 0.000005746935
28.43400 0.000005709071
28.43980 0.000005671207
28.44560 0.000005633343
28.45140 0.000005595479
28.45720 0.000005557615
28.46300 0.000005519750
28.46880 0.000005481886
28.47460 0.000005444022
28.48040 0.000005406158
28.48620 0.000005368294
28.49200 0.000005330430
28.49780 0.000005292566
28.50360 0.000005272703
28.50940 0.000005263841
28.51520 0.000005254979
28.52100 0.000005246117
28.52680 0.000005237255
28.53260 0.000005228394
28.53840 0.000005219532
28.54420 0.000005210670
28.55000 0.000005201808
28.55580 0.000005192946
28.56160 0.000005184085
28.56740 0.000005175223
28.57320 0.000005166361
28.57900 0.000005157499
28.58480 0.000005148637
28.59060 0.000005139775
28.59640 0.000005130914
28.60220 0.000005122052
28.60800 0.000005113190
28.61380 0.000005104328
28.61960 0.000005095466
28.62540 0.000005086604
28.63120 0.000005077743
28.63700 0.000005068881
28.64280 0.000005060019
28.64860 0.000005051157
28.65440 0.000005042295
28.66020 0.000005033434
28.66600 0.000005024572
28.67180 0.000005015710
28.67760 0.000005006848
28.68340 0.000004997986
28.68920 0.000004989124
28.69500 0.000004980263
28.70080 0.000004971401
28.70660 0.000004962539
28.71240 0.000004953677
28.71820 0.000004944815
28.72400 0.000004935953
28.72980 0.000004927092
28.73560 0.000004918230
28.74140 0.000004909368
28.74720 0.000004900506
28.75300 0.000004891644
28.75880 0.000004882782
28.76460 0.000004873921
28.77040 0.000004865059
28.77620 0.000004856197
28.78200 0.000004847335
28.78780 0.000004838473
28.79360 0.000004829612
28.79940 0.000004820750
28.80520 0.000004811888
28.81100 0.000004803026
28.81680 0.000004794164
28.82260 0.000004785302
28.82840 0.000004776441
28.83420 0.000004767579
28.84000 0.000004758717
28.84580 0.000004749855
28.85160 0.000004740993
28.85740 0.000004732131
28.86320 0.000004723270
28.86900 0.000004714408
28.87480 0.000004705546
28.88060 0.000004696684
28.88640 0.000004687822
28.89220 0.000004678960
28.89800 0.000004670099
28.90380 0.000004661237
28.90960 0.000004652375
28.91540 0.000004643513
28.92120 0.000004634651
28.92700 0.000004625790
28.93280 0.000004616928
28.93860 0.000004608066
28.94440 0.000004599204
28.95020 0.000004590342
28.95600 0.000004581480
28.96180 0.000004572619
28.96760 0.000004563757
28.97340 0.000004554895
28.97920 0.000004546033
28.98500 0.000004537171
28.99080 0.000004528309
28.99660 0.000004519448
29.00240 0.000004504252
29.00820 0.000004480083
29.01400 0.000004455915
29.01980 0.000004431746
29.02560 0.000004407578
29.03140 0.000004383409
29.03720 0.000004359240
29.04300 0.000004335072
29.04880 0.000004310903
29.05460 0.000004286734
29.06040 0.000004262566
29.06620 0.000004238397
29.07200 0.000004214229
29.07780 0.000004190060
29.08360 0.000004165891
29.08940 0.000004141723
29.09520 0.000004117554
29.10100 0.000004093386
29.10680 0.000004069217
29.11260 0.000004045048
29.11840 0.000004020880
29.12420 0.000003996711
29.13000 0.000003972542
29.13580 0.000003948374
29.14160 0.000003924205
29.14740 0.000003900037
29.15320 0.000003875868
29.15900 0.000003851699
29.16480 0.000003827531
29.17060 0.000003803362
29.17640 0.000003779194
29.18220 0.000003755025
29.18800 0.000003730856
29.19380 0.000003706688
29.19960 0.000003682519
29.20540 0.000003658350
29.21120 0.000003634182
29.21700 0.000003610013
29.22280 0.000003585845
29.22860 0.000003561676
29.23440 0.000003537507
29.24020 0.000003513339
29.24600 0.000003489170
29.25180 0.000003465002
29.25760 0.000003440833
29.26340 0.000003416664
29.26920 0.000003392496
29.27500 0.000003368327
29.28080 0.000003344158
29.28660 0.000003319990
29.29240 0.000003295821
29.29820 0.000003271653
29.30400 0.000003247484
29.30980 0.000003223315
29.31560 0.000003199147
29.32140 0.000003174978
29.32720 0.000003150810
29.33300 0.000003126641
29.33880 0.000003102472
29.34460 0.000003078304
29.35040 0.000003054135
29.35620 0.000003029966
29.36200 0.000003005798
29.36780 0.000002981629
29.37360 0.000002957461
29.37940 0.000002933292
29.38520 0.000002909123
29.39100 0.000002884955
29.39680 0.000002860786
29.40260 0.000002836618
29.40840 0.000002812449
29.41420 0.000002788280
29.42000 0.000002764112
29.42580 0.000002739943
29.43160 0.000002715774
29.43740 0.000002691606
29.44320 0.000002667437
29.44900 0.000002643269
29.45480 0.000002619100
29.46060 0.000002594931
29.46640 0.000002570763
29.47220 0.000002546594
29.47800 0.000002522426
29.48380 0.000002498257
29.48960 0.000002474088
29.49540 0.000002449920
29.50120 0.000002427918
29.50700 0.000002414222
29.51280 0.000002400527
29.51860 0.000002386831
29.52440 0.000002373136
29.53020 0.000002359440
29.53600 0.000002345745
29.54180 0.000002332049
29.54760 0.000002318354
29.55340 0.000002304658
29.55920 0.000002290962
29.56500 0.000002277267
29.57080 0.000002263571
29.57660 0.000002249876
29.58240 0.000002236180
29.58820 0.000002222485
29.59400 0.000002208789
29.59980 0.000002195094
29.60560 0.000002181398
29.61140 0.000002167703
29.61720 0.000002154007
29.62300 0.000002140311
29.62880 0.000002126616
29.63460 0.000002112920
29.64040 0.000002099225
29.64620 0.000002085529
29.65200 0.000002071834
29.65780 0.000002058138
29.66360 0.000002044443
29.66940 0.000002030747
29.67520 0.000002017051
29.68100 0.000002003356
29.68680 0.000001989660
29.69260 0.000001975965
29.69840 0.000001962269
29.70420 0.000001948574
29.71000 0.000001934878
29.71580 0.000001921183
29.72160 0.000001907487
29.72740 0.000001893792
29.73320 0.000001880096
29.73900 0.000001866400
29.74480 0.000001852705
29.75060 0.000001839009
29.75640 0.000001825314
29.76220 0.000001811618
29.76800 0.000001797923
29.77380 0.000001784227
29.77960 0.000001770532
29.78540 0.000001756836
29.79120 0.000001743141
29.79700 0.000001729445
29.80280 0.000001715749
29.80860 0.000001702054
29.81440 0.000001688358
29.82020 0.000001674663
29.82600 0.000001660967
29.83180 0.000001647272
29.83760 0.000001633576
29.84340 0.000001619881
29.84920 0.000001606185
29.85500 0.000001592489
29.86080 0.000001578794
29.86660 0.000001565098
29.87240 0.000001551403
29.87820 0.000001537707
29.88400 0.000001524012
29.88980 0.000001510316
29.89560 0.000001496621
29.90140 0.000001482925
29.90720 0.000001469230
29.91300 0.000001455534
29.91880 0.000001441838
29.92460 0.000001428143
29.93040 0.000001414447
29.93620 0.000001400752
29.94200 0.000001387056
29.94780 0.000001373361
29.95360 0.000001359665
29.95940 0.000001345970
29.96520 0.000001332274
29.97100 0.000001318579
29.97680 0.000001304883
29.98260 0.000001291187
29.98840 0.000001277492
29.99420 0.000001263796
